%OpenBCI Raw EEG Data
%
%Sample Rate = 250.0 Hz
%First Column = SampleIndex
%Other Columns = EEG data in microvolts followed by Accel Data (in G) interleaved with Aux Data
0, 19642.56, 53160.80, -187500.02, 49088.21, -187500.02, -187500.02, -187500.02, -187500.02, -3.55, -0.02, 1.07
1, 19235.33, 52882.68, -187500.02, 50811.28, -187500.02, -187500.02, -187500.02, -187500.02, 0.00, 0.00, 0.00
2, 18660.33, 52459.52, -187500.02, 55934.08, -187500.02, -187500.02, -187500.02, -187500.02, 0.00, 0.00, 0.00
3, 18637.69, 52429.75, -187500.02, 58147.66, -187500.02, -187500.02, -187500.02, -187500.02, 0.00, 0.00, 0.00
4, 19191.56, 52826.98, -187500.02, 53999.98, -187500.02, -187500.02, -187500.02, -187500.02, 0.00, 0.00, 0.00
5, 19648.32, 53168.94, -187500.02, 49138.77, -187500.02, -187500.02, -187500.02, -187500.02, 0.00, 0.00, 0.00
6, 19252.81, 52886.55, -187500.02, 50749.88, -187500.02, -187500.02, -187500.02, -187500.02, 0.00, 0.00, 0.00
7, 18676.22, 52466.67, -187500.02, 55856.83, -187500.02, -187500.02, -187500.02, -187500.02, -3.55, -0.02, 1.06
8, 18634.63, 52420.98, -187500.02, 58147.79, -187500.02, -187500.02, -187500.02, -187500.02, 0.00, 0.00, 0.00
9, 19173.84, 52805.39, -187500.02, 54109.23, -187500.02, -187500.02, -187500.02, -187500.02, 0.00, 0.00, 0.00
10, 19629.93, 53148.69, -187500.02, 49242.81, -187500.02, -187500.02, -187500.02, -187500.02, 0.00, 0.00, 0.00
11, 19256.09, 52895.13, -187500.02, 50766.22, -187500.02, -187500.02, -187500.02, -187500.02, 0.00, 0.00, 0.00
12, 18687.55, 52480.17, -187500.02, 55771.91, -187500.02, -187500.02, -187500.02, -187500.02, 0.00, 0.00, 0.00
13, 18630.31, 52420.34, -187500.02, 58201.06, -187500.02, -187500.02, -187500.02, -187500.02, 0.00, 0.00, 0.00
14, 19175.36, 52813.91, -187500.02, 54299.25, -187500.02, -187500.02, -187500.02, -187500.02, 0.00, 0.00, 0.00
15, 19652.19, 53170.60, -187500.02, 49292.86, -187500.02, -187500.02, -187500.02, -187500.02, 0.00, 0.00, 0.00
16, 19273.30, 52906.93, -187500.02, 50583.45, -187500.02, -187500.02, -187500.02, -187500.02, 0.00, 0.00, 0.00
17, 18694.39, 52483.21, -187500.02, 55633.09, -187500.02, -187500.02, -187500.02, -187500.02, -3.55, -0.02, 1.07
18, 18613.95, 52415.24, -187500.02, 58263.82, -187500.02, -187500.02, -187500.02, -187500.02, 0.00, 0.00, 0.00
19, 19157.86, 52812.14, -187500.02, 54452.98, -187500.02, -187500.02, -187500.02, -187500.02, 0.00, 0.00, 0.00
20, 19646.13, 53163.58, -187500.02, 49352.79, -187500.02, -187500.02, -187500.02, -187500.02, 0.00, 0.00, 0.00
21, 19287.54, 52905.77, -187500.02, 50531.59, -187500.02, -187500.02, -187500.02, -187500.02, 0.00, 0.00, 0.00
22, 18707.81, 52484.89, -187500.02, 55546.72, -187500.02, -187500.02, -187500.02, -187500.02, 0.00, 0.00, 0.00
23, 18605.23, 52405.54, -187500.02, 58297.37, -187500.02, -187500.02, -187500.02, -187500.02, 0.00, 0.00, 0.00
24, 19151.06, 52800.72, -187500.02, 54429.27, -187500.02, -187500.02, -187500.02, -187500.02, 0.00, 0.00, 0.00
25, 19638.60, 53163.02, -187500.02, 49374.09, -187500.02, -187500.02, -187500.02, -187500.02, 0.00, 0.00, 0.00
26, 19294.49, 52917.17, -187500.02, 50453.52, -187500.02, -187500.02, -187500.02, -187500.02, 0.00, 0.00, 0.00
27, 18710.24, 52487.77, -187500.02, 55494.51, -187500.02, -187500.02, -187500.02, -187500.02, 0.00, 0.00, 0.00
28, 18585.70, 52393.96, -187500.02, 58376.52, -187500.02, -187500.02, -187500.02, -187500.02, -3.55, -0.03, 1.07
29, 19134.17, 52790.82, -187500.02, 54570.06, -187500.02, -187500.02, -187500.02, -187500.02, 0.00, 0.00, 0.00
30, 19640.46, 53164.54, -187500.02, 49460.92, -187500.02, -187500.02, -187500.02, -187500.02, 0.00, 0.00, 0.00
31, 19306.21, 52926.92, -187500.02, 50393.41, -187500.02, -187500.02, -187500.02, -187500.02, 0.00, 0.00, 0.00
32, 18723.23, 52509.03, -187500.02, 55473.56, -187500.02, -187500.02, -187500.02, -187500.02, 0.00, 0.00, 0.00
33, 18581.92, 52386.95, -187500.02, 58375.11, -187500.02, -187500.02, -187500.02, -187500.02, 0.00, 0.00, 0.00
34, 19115.28, 52765.45, -187500.02, 54611.52, -187500.02, -187500.02, -187500.02, -187500.02, 0.00, 0.00, 0.00
35, 19631.25, 53142.90, -187500.02, 49500.98, -187500.02, -187500.02, -187500.02, -187500.02, 0.00, 0.00, 0.00
36, 19297.47, 52921.87, -187500.02, 50257.20, -187500.02, -187500.02, -187500.02, -187500.02, 0.00, 0.00, 0.00
37, 18712.37, 52492.94, -187500.02, 55313.82, -187500.02, -187500.02, -187500.02, -187500.02, 0.00, 0.00, 0.00
38, 18567.59, 52371.54, -187500.02, 58505.76, -187500.02, -187500.02, -187500.02, -187500.02, -3.55, -0.03, 1.07
39, 19117.80, 52765.74, -187500.02, 54721.16, -187500.02, -187500.02, -187500.02, -187500.02, 0.00, 0.00, 0.00
40, 19647.65, 53167.27, -187500.02, 49583.27, -187500.02, -187500.02, -187500.02, -187500.02, 0.00, 0.00, 0.00
41, 19326.17, 52938.54, -187500.02, 50264.67, -187500.02, -187500.02, -187500.02, -187500.02, 0.00, 0.00, 0.00
42, 18727.61, 52522.21, -187500.02, 55285.34, -187500.02, -187500.02, -187500.02, -187500.02, 0.00, 0.00, 0.00
43, 18560.57, 52380.66, -187500.02, 58475.76, -187500.02, -187500.02, -187500.02, -187500.02, 0.00, 0.00, 0.00
44, 19091.63, 52746.27, -187500.02, 54748.14, -187500.02, -187500.02, -187500.02, -187500.02, 0.00, 0.00, 0.00
45, 19619.67, 53133.63, -187500.02, 49652.32, -187500.02, -187500.02, -187500.02, -187500.02, 0.00, 0.00, 0.00
46, 19318.68, 52932.10, -187500.02, 50250.52, -187500.02, -187500.02, -187500.02, -187500.02, 0.00, 0.00, 0.00
47, 18733.55, 52514.33, -187500.02, 55231.27, -187500.02, -187500.02, -187500.02, -187500.02, 0.00, 0.00, 0.00
48, 18574.97, 52385.38, -187500.02, 58452.61, -187500.02, -187500.02, -187500.02, -187500.02, -3.56, -0.03, 1.07
49, 19104.73, 52761.61, -187500.02, 54842.73, -187500.02, -187500.02, -187500.02, -187500.02, 0.00, 0.00, 0.00
50, 19608.92, 53134.27, -187500.02, 49731.85, -187500.02, -187500.02, -187500.02, -187500.02, 0.00, 0.00, 0.00
51, 19335.06, 52946.12, -187500.02, 50116.10, -187500.02, -187500.02, -187500.02, -187500.02, 0.00, 0.00, 0.00
52, 18755.77, 52529.35, -187500.02, 55066.07, -187500.02, -187500.02, -187500.02, -187500.02, 0.00, 0.00, 0.00
53, 18557.00, 52377.87, -187500.02, 58457.52, -187500.02, -187500.02, -187500.02, -187500.02, 0.00, 0.00, 0.00
54, 19085.24, 52754.90, -187500.02, 54904.06, -187500.02, -187500.02, -187500.02, -187500.02, 0.00, 0.00, 0.00
55, 19615.20, 53138.34, -187500.02, 49808.25, -187500.02, -187500.02, -187500.02, -187500.02, 0.00, 0.00, 0.00
56, 19343.80, 52952.69, -187500.02, 50104.14, -187500.02, -187500.02, -187500.02, -187500.02, 0.00, 0.00, 0.00
57, 18762.59, 52532.92, -187500.02, 54984.80, -187500.02, -187500.02, -187500.02, -187500.02, 0.00, 0.00, 0.00
58, 18554.61, 52366.47, -187500.02, 58471.98, -187500.02, -187500.02, -187500.02, -187500.02, 0.00, 0.00, 0.00
59, 19075.58, 52735.99, -187500.02, 54967.92, -187500.02, -187500.02, -187500.02, -187500.02, -3.56, -0.02, 1.07
60, 19610.17, 53131.50, -187500.02, 49869.91, -187500.02, -187500.02, -187500.02, -187500.02, 0.00, 0.00, 0.00
61, 19349.55, 52958.43, -187500.02, 50025.17, -187500.02, -187500.02, -187500.02, -187500.02, 0.00, 0.00, 0.00
62, 18767.62, 52532.48, -187500.02, 54880.30, -187500.02, -187500.02, -187500.02, -187500.02, 0.00, 0.00, 0.00
63, 18540.46, 52361.17, -187500.02, 58445.25, -187500.02, -187500.02, -187500.02, -187500.02, 0.00, 0.00, 0.00
64, 19054.88, 52736.35, -187500.02, 55091.71, -187500.02, -187500.02, -187500.02, -187500.02, 0.00, 0.00, 0.00
65, 19590.07, 53121.00, -187500.02, 49997.81, -187500.02, -187500.02, -187500.02, -187500.02, 0.00, 0.00, 0.00
66, 19360.57, 52962.14, -187500.02, 49970.59, -187500.02, -187500.02, -187500.02, -187500.02, 0.00, 0.00, 0.00
67, 18781.66, 52541.48, -187500.02, 54745.21, -187500.02, -187500.02, -187500.02, -187500.02, 0.00, 0.00, 0.00
68, 18527.05, 52350.55, -187500.02, 58472.90, -187500.02, -187500.02, -187500.02, -187500.02, 0.00, 0.00, 0.00
69, 19039.55, 52714.04, -187500.02, 55264.71, -187500.02, -187500.02, -187500.02, -187500.02, -3.55, -0.02, 1.07
70, 19579.52, 53107.96, -187500.02, 50072.00, -187500.02, -187500.02, -187500.02, -187500.02, 0.00, 0.00, 0.00
71, 19358.33, 52958.05, -187500.02, 49855.00, -187500.02, -187500.02, -187500.02, -187500.02, 0.00, 0.00, 0.00
72, 18791.36, 52551.65, -187500.02, 54584.19, -187500.02, -187500.02, -187500.02, -187500.02, 0.00, 0.00, 0.00
73, 18524.43, 52347.27, -187500.02, 58432.26, -187500.02, -187500.02, -187500.02, -187500.02, 0.00, 0.00, 0.00
74, 19032.42, 52707.40, -187500.02, 55301.25, -187500.02, -187500.02, -187500.02, -187500.02, 0.00, 0.00, 0.00
75, 19580.53, 53109.33, -187500.02, 50186.10, -187500.02, -187500.02, -187500.02, -187500.02, 0.00, 0.00, 0.00
76, 19374.65, 52972.61, -187500.02, 49909.05, -187500.02, -187500.02, -187500.02, -187500.02, 0.00, 0.00, 0.00
77, 18808.66, 52566.68, -187500.02, 54523.48, -187500.02, -187500.02, -187500.02, -187500.02, 0.00, 0.00, 0.00
78, 18535.05, 52365.06, -187500.02, 58452.58, -187500.02, -187500.02, -187500.02, -187500.02, 0.00, 0.00, 0.00
79, 19034.10, 52714.51, -187500.02, 55428.39, -187500.02, -187500.02, -187500.02, -187500.02, -3.55, -0.03, 1.07
80, 19570.72, 53103.14, -187500.02, 50278.93, -187500.02, -187500.02, -187500.02, -187500.02, 0.00, 0.00, 0.00
81, 19382.40, 52975.09, -187500.02, 49786.77, -187500.02, -187500.02, -187500.02, -187500.02, 0.00, 0.00, 0.00
82, 18810.02, 52558.94, -187500.02, 54415.19, -187500.02, -187500.02, -187500.02, -187500.02, 0.00, 0.00, 0.00
83, 18512.79, 52335.00, -187500.02, 58436.31, -187500.02, -187500.02, -187500.02, -187500.02, 0.00, 0.00, 0.00
84, 19004.19, 52688.56, -187500.02, 55481.90, -187500.02, -187500.02, -187500.02, -187500.02, 0.00, 0.00, 0.00
85, 19552.17, 53087.31, -187500.02, 50337.67, -187500.02, -187500.02, -187500.02, -187500.02, 0.00, 0.00, 0.00
86, 19381.60, 52974.62, -187500.02, 49801.83, -187500.02, -187500.02, -187500.02, -187500.02, 0.00, 0.00, 0.00
87, 18813.98, 52563.84, -187500.02, 54363.33, -187500.02, -187500.02, -187500.02, -187500.02, 0.00, 0.00, 0.00
88, 18499.71, 52327.58, -187500.02, 58421.02, -187500.02, -187500.02, -187500.02, -187500.02, 0.00, 0.00, 0.00
89, 19002.58, 52681.45, -187500.02, 55542.72, -187500.02, -187500.02, -187500.02, -187500.02, 0.00, 0.00, 0.00
90, 19540.27, 53078.53, -187500.02, 50406.80, -187500.02, -187500.02, -187500.02, -187500.02, -3.54, -0.02, 1.07
91, 19378.54, 52969.70, -187500.02, 49736.88, -187500.02, -187500.02, -187500.02, -187500.02, 0.00, 0.00, 0.00
92, 18817.02, 52553.26, -187500.02, 54219.81, -187500.02, -187500.02, -187500.02, -187500.02, 0.00, 0.00, 0.00
93, 18495.33, 52312.94, -187500.02, 58357.25, -187500.02, -187500.02, -187500.02, -187500.02, 0.00, 0.00, 0.00
94, 18980.23, 52661.94, -187500.02, 55554.72, -187500.02, -187500.02, -187500.02, -187500.02, 0.00, 0.00, 0.00
95, 19536.61, 53072.29, -187500.02, 50414.43, -187500.02, -187500.02, -187500.02, -187500.02, 0.00, 0.00, 0.00
96, 19399.86, 52991.49, -187500.02, 49550.60, -187500.02, -187500.02, -187500.02, -187500.02, 0.00, 0.00, 0.00
97, 18827.01, 52566.41, -187500.02, 54102.30, -187500.02, -187500.02, -187500.02, -187500.02, 0.00, 0.00, 0.00
98, 18491.91, 52309.29, -187500.02, 58258.84, -187500.02, -187500.02, -187500.02, -187500.02, 0.00, 0.00, 0.00
99, 18971.18, 52658.27, -187500.02, 55554.68, -187500.02, -187500.02, -187500.02, -187500.02, 0.00, 0.00, 0.00
100, 19535.94, 53077.66, -187500.02, 50487.11, -187500.02, -187500.02, -187500.02, -187500.02, -3.54, -0.02, 1.07
101, 19409.88, 52990.82, -187500.02, 49457.55, -187500.02, -187500.02, -187500.02, -187500.02, 0.00, 0.00, 0.00
102, 18839.70, 52577.85, -187500.02, 53916.12, -187500.02, -187500.02, -187500.02, -187500.02, 0.00, 0.00, 0.00
103, 18491.08, 52314.39, -187500.02, 58275.09, -187500.02, -187500.02, -187500.02, -187500.02, 0.00, 0.00, 0.00
104, 18970.95, 52655.34, -187500.02, 55703.32, -187500.02, -187500.02, -187500.02, -187500.02, 0.00, 0.00, 0.00
105, 19536.85, 53070.32, -187500.02, 50612.42, -187500.02, -187500.02, -187500.02, -187500.02, 0.00, 0.00, 0.00
106, 19432.14, 53006.78, -187500.02, 49471.18, -187500.02, -187500.02, -187500.02, -187500.02, 0.00, 0.00, 0.00
107, 18856.24, 52593.68, -187500.02, 53905.45, -187500.02, -187500.02, -187500.02, -187500.02, 0.00, 0.00, 0.00
108, 18484.02, 52306.84, -187500.02, 58288.09, -187500.02, -187500.02, -187500.02, -187500.02, 0.00, 0.00, 0.00
109, 18947.89, 52630.69, -187500.02, 55805.80, -187500.02, -187500.02, -187500.02, -187500.02, 0.00, 0.00, 0.00
110, 19524.79, 53061.09, -187500.02, 50726.57, -187500.02, -187500.02, -187500.02, -187500.02, -3.54, -0.03, 1.07
111, 19448.45, 53018.40, -187500.02, 49449.46, -187500.02, -187500.02, -187500.02, -187500.02, 0.00, 0.00, 0.00
112, 18886.44, 52613.34, -187500.02, 53899.98, -187500.02, -187500.02, -187500.02, -187500.02, 0.00, 0.00, 0.00
113, 18512.90, 52338.98, -187500.02, 58383.54, -187500.02, -187500.02, -187500.02, -187500.02, 0.00, 0.00, 0.00
114, 18974.15, 52669.22, -187500.02, 55929.23, -187500.02, -187500.02, -187500.02, -187500.02, 0.00, 0.00, 0.00
115, 19545.57, 53086.91, -187500.02, 50862.71, -187500.02, -187500.02, -187500.02, -187500.02, 0.00, 0.00, 0.00
116, 19478.00, 53048.64, -187500.02, 49484.48, -187500.02, -187500.02, -187500.02, -187500.02, 0.00, 0.00, 0.00
117, 18901.75, 52631.58, -187500.02, 53739.85, -187500.02, -187500.02, -187500.02, -187500.02, 0.00, 0.00, 0.00
118, 18510.33, 52341.95, -187500.02, 58335.95, -187500.02, -187500.02, -187500.02, -187500.02, 0.00, 0.00, 0.00
119, 18975.85, 52669.56, -187500.02, 56067.74, -187500.02, -187500.02, -187500.02, -187500.02, 0.00, 0.00, 0.00
120, 19530.93, 53067.55, -187500.02, 50950.98, -187500.02, -187500.02, -187500.02, -187500.02, 0.00, 0.00, 0.00
121, 19482.18, 53048.76, -187500.02, 49397.33, -187500.02, -187500.02, -187500.02, -187500.02, -3.54, -0.02, 1.07
122, 18926.76, 52652.46, -187500.02, 53700.94, -187500.02, -187500.02, -187500.02, -187500.02, 0.00, 0.00, 0.00
123, 18515.80, 52338.60, -187500.02, 58302.58, -187500.02, -187500.02, -187500.02, -187500.02, 0.00, 0.00, 0.00
124, 18953.70, 52647.77, -187500.02, 56171.54, -187500.02, -187500.02, -187500.02, -187500.02, 0.00, 0.00, 0.00
125, 19515.66, 53056.00, -187500.02, 51104.63, -187500.02, -187500.02, -187500.02, -187500.02, 0.00, 0.00, 0.00
126, 19502.30, 53061.79, -187500.02, 49310.11, -187500.02, -187500.02, -187500.02, -187500.02, 0.00, 0.00, 0.00
127, 18940.29, 52654.67, -187500.02, 53538.91, -187500.02, -187500.02, -187500.02, -187500.02, 0.00, 0.00, 0.00
128, 18514.82, 52343.07, -187500.02, 58209.80, -187500.02, -187500.02, -187500.02, -187500.02, 0.00, 0.00, 0.00
129, 18956.09, 52650.85, -187500.02, 56181.42, -187500.02, -187500.02, -187500.02, -187500.02, 0.00, 0.00, 0.00
130, 19521.92, 53061.61, -187500.02, 51102.84, -187500.02, -187500.02, -187500.02, -187500.02, 0.00, 0.00, 0.00
131, 19506.46, 53061.95, -187500.02, 49205.71, -187500.02, -187500.02, -187500.02, -187500.02, -3.54, -0.03, 1.06
132, 18948.91, 52669.31, -187500.02, 53213.98, -187500.02, -187500.02, -187500.02, -187500.02, 0.00, 0.00, 0.00
133, 18516.21, 52350.60, -187500.02, 57685.89, -187500.02, -187500.02, -187500.02, -187500.02, 0.00, 0.00, 0.00
134, 18945.54, 52644.46, -187500.02, 55606.54, -187500.02, -187500.02, -187500.02, -187500.02, 0.00, 0.00, 0.00
135, 19519.00, 53058.73, -187500.02, 50387.31, -187500.02, -187500.02, -187500.02, -187500.02, 0.00, 0.00, 0.00
136, 19531.69, 53080.88, -187500.02, 48385.36, -187500.02, -187500.02, -187500.02, -187500.02, 0.00, 0.00, 0.00
137, 18965.01, 52675.82, -187500.02, 52609.70, -187500.02, -187500.02, -187500.02, -187500.02, 0.00, 0.00, 0.00
138, 18510.42, 52339.38, -187500.02, 57627.33, -187500.02, -187500.02, -187500.02, -187500.02, 0.00, 0.00, 0.00
139, 18929.13, 52638.11, -187500.02, 56117.47, -187500.02, -187500.02, -187500.02, -187500.02, 0.00, 0.00, 0.00
140, 19507.62, 53062.32, -187500.02, 51291.51, -187500.02, -187500.02, -187500.02, -187500.02, 0.00, 0.00, 0.00
141, 19535.38, 53090.40, -187500.02, 49139.26, -187500.02, -187500.02, -187500.02, -187500.02, 0.00, 0.00, 0.00
142, 18983.65, 52699.02, -187500.02, 53293.57, -187500.02, -187500.02, -187500.02, -187500.02, -3.54, -0.02, 1.06
143, 18523.31, 52355.96, -187500.02, 58171.38, -187500.02, -187500.02, -187500.02, -187500.02, 0.00, 0.00, 0.00
144, 18919.10, 52627.34, -187500.02, 56489.50, -187500.02, -187500.02, -187500.02, -187500.02, 0.00, 0.00, 0.00
145, 19491.77, 53042.77, -187500.02, 51439.48, -187500.02, -187500.02, -187500.02, -187500.02, 0.00, 0.00, 0.00
146, 19554.04, 53103.92, -187500.02, 49078.75, -187500.02, -187500.02, -187500.02, -187500.02, 0.00, 0.00, 0.00
147, 18995.76, 52702.35, -187500.02, 53108.61, -187500.02, -187500.02, -187500.02, -187500.02, 0.00, 0.00, 0.00
148, 18518.93, 52348.66, -187500.02, 58075.39, -187500.02, -187500.02, -187500.02, -187500.02, 0.00, 0.00, 0.00
149, 18912.03, 52627.61, -187500.02, 56624.23, -187500.02, -187500.02, -187500.02, -187500.02, 0.00, 0.00, 0.00
150, 19498.14, 53057.25, -187500.02, 51573.72, -187500.02, -187500.02, -187500.02, -187500.02, 0.00, 0.00, 0.00
151, 19567.41, 53111.18, -187500.02, 49033.54, -187500.02, -187500.02, -187500.02, -187500.02, 0.00, 0.00, 0.00
152, 19001.35, 52704.72, -187500.02, 53026.81, -187500.02, -187500.02, -187500.02, -187500.02, -3.55, -0.03, 1.06
153, 18535.63, 52371.79, -187500.02, 58085.90, -187500.02, -187500.02, -187500.02, -187500.02, 0.00, 0.00, 0.00
154, 18914.34, 52636.43, -187500.02, 56707.51, -187500.02, -187500.02, -187500.02, -187500.02, 0.00, 0.00, 0.00
155, 19471.50, 53032.62, -187500.02, 51661.16, -187500.02, -187500.02, -187500.02, -187500.02, 0.00, 0.00, 0.00
156, 19569.58, 53113.40, -187500.02, 49022.09, -187500.02, -187500.02, -187500.02, -187500.02, 0.00, 0.00, 0.00
157, 19018.45, 52718.18, -187500.02, 52974.62, -187500.02, -187500.02, -187500.02, -187500.02, 0.00, 0.00, 0.00
158, 18534.18, 52354.09, -187500.02, 57989.01, -187500.02, -187500.02, -187500.02, -187500.02, 0.00, 0.00, 0.00
159, 18910.87, 52630.04, -187500.02, 56713.26, -187500.02, -187500.02, -187500.02, -187500.02, 0.00, 0.00, 0.00
160, 19465.87, 53034.50, -187500.02, 51696.25, -187500.02, -187500.02, -187500.02, -187500.02, 0.00, 0.00, 0.00
161, 19555.05, 53102.00, -187500.02, 48992.09, -187500.02, -187500.02, -187500.02, -187500.02, 0.00, 0.00, 0.00
162, 19005.08, 52708.21, -187500.02, 52841.46, -187500.02, -187500.02, -187500.02, -187500.02, -3.55, -0.03, 1.07
163, 18497.48, 52334.44, -187500.02, 57855.68, -187500.02, -187500.02, -187500.02, -187500.02, 0.00, 0.00, 0.00
164, 18840.87, 52574.59, -187500.02, 56814.29, -187500.02, -187500.02, -187500.02, -187500.02, 0.00, 0.00, 0.00
165, 19415.55, 52991.02, -187500.02, 51834.77, -187500.02, -187500.02, -187500.02, -187500.02, 0.00, 0.00, 0.00
166, 19542.55, 53091.65, -187500.02, 48954.41, -187500.02, -187500.02, -187500.02, -187500.02, 0.00, 0.00, 0.00
167, 18992.72, 52703.63, -187500.02, 52718.60, -187500.02, -187500.02, -187500.02, -187500.02, 0.00, 0.00, 0.00
168, 18494.35, 52331.98, -187500.02, 57820.96, -187500.02, -187500.02, -187500.02, -187500.02, 0.00, 0.00, 0.00
169, 18833.96, 52572.82, -187500.02, 56911.79, -187500.02, -187500.02, -187500.02, -187500.02, 0.00, 0.00, 0.00
170, 19406.32, 52989.97, -187500.02, 51898.60, -187500.02, -187500.02, -187500.02, -187500.02, 0.00, 0.00, 0.00
171, 19555.32, 53098.20, -187500.02, 48869.92, -187500.02, -187500.02, -187500.02, -187500.02, 0.00, 0.00, 0.00
172, 19030.14, 52729.02, -187500.02, 52641.69, -187500.02, -187500.02, -187500.02, -187500.02, 0.00, 0.00, 0.00
173, 18522.40, 52357.13, -187500.02, 57695.62, -187500.02, -187500.02, -187500.02, -187500.02, -3.55, -0.03, 1.07
174, 18831.48, 52562.05, -187500.02, 56884.59, -187500.02, -187500.02, -187500.02, -187500.02, 0.00, 0.00, 0.00
175, 19419.31, 52998.87, -187500.02, 51999.39, -187500.02, -187500.02, -187500.02, -187500.02, 0.00, 0.00, 0.00
176, 19582.34, 53127.57, -187500.02, 48856.29, -187500.02, -187500.02, -187500.02, -187500.02, 0.00, 0.00, 0.00
177, 19033.02, 52735.36, -187500.02, 52516.29, -187500.02, -187500.02, -187500.02, -187500.02, 0.00, 0.00, 0.00
178, 18518.24, 52358.94, -187500.02, 57615.11, -187500.02, -187500.02, -187500.02, -187500.02, 0.00, 0.00, 0.00
179, 18831.32, 52574.61, -187500.02, 56920.75, -187500.02, -187500.02, -187500.02, -187500.02, 0.00, 0.00, 0.00
180, 19408.20, 52988.72, -187500.02, 52081.82, -187500.02, -187500.02, -187500.02, -187500.02, 0.00, 0.00, 0.00
181, 19588.98, 53123.01, -187500.02, 48885.83, -187500.02, -187500.02, -187500.02, -187500.02, 0.00, 0.00, 0.00
182, 19048.67, 52734.49, -187500.02, 52457.06, -187500.02, -187500.02, -187500.02, -187500.02, 0.00, 0.00, 0.00
183, 18528.57, 52360.43, -187500.02, 57546.20, -187500.02, -187500.02, -187500.02, -187500.02, -3.55, -0.03, 1.07
184, 18826.45, 52568.33, -187500.02, 56908.63, -187500.02, -187500.02, -187500.02, -187500.02, 0.00, 0.00, 0.00
185, 19395.52, 52975.42, -187500.02, 52080.55, -187500.02, -187500.02, -187500.02, -187500.02, 0.00, 0.00, 0.00
186, 19578.81, 53108.23, -187500.02, 48749.55, -187500.02, -187500.02, -187500.02, -187500.02, 0.00, 0.00, 0.00
187, 19051.67, 52738.69, -187500.02, 52280.32, -187500.02, -187500.02, -187500.02, -187500.02, 0.00, 0.00, 0.00
188, 18556.60, 52381.98, -187500.02, 57349.90, -187500.02, -187500.02, -187500.02, -187500.02, 0.00, 0.00, 0.00
189, 18855.84, 52587.44, -187500.02, 56712.43, -187500.02, -187500.02, -187500.02, -187500.02, 0.00, 0.00, 0.00
190, 19414.34, 52993.46, -187500.02, 51961.39, -187500.02, -187500.02, -187500.02, -187500.02, 0.00, 0.00, 0.00
191, 19577.85, 53121.63, -187500.02, 48780.96, -187500.02, -187500.02, -187500.02, -187500.02, 0.00, 0.00, 0.00
192, 19044.98, 52742.14, -187500.02, 52334.08, -187500.02, -187500.02, -187500.02, -187500.02, 0.00, 0.00, 0.00
193, 18537.04, 52364.17, -187500.02, 57371.43, -187500.02, -187500.02, -187500.02, -187500.02, -3.55, -0.03, 1.08
194, 18833.45, 52562.50, -187500.02, 56764.18, -187500.02, -187500.02, -187500.02, -187500.02, 0.00, 0.00, 0.00
195, 19402.74, 52979.85, -187500.02, 51987.27, -187500.02, -187500.02, -187500.02, -187500.02, 0.00, 0.00, 0.00
196, 19594.88, 53137.80, -187500.02, 48730.85, -187500.02, -187500.02, -187500.02, -187500.02, 0.00, 0.00, 0.00
197, 19070.37, 52754.21, -187500.02, 52310.03, -187500.02, -187500.02, -187500.02, -187500.02, 0.00, 0.00, 0.00
198, 18542.87, 52365.17, -187500.02, 57333.52, -187500.02, -187500.02, -187500.02, -187500.02, 0.00, 0.00, 0.00
199, 18837.33, 52574.23, -187500.02, 56838.11, -187500.02, -187500.02, -187500.02, -187500.02, 0.00, 0.00, 0.00
200, 19395.08, 52976.16, -187500.02, 52089.20, -187500.02, -187500.02, -187500.02, -187500.02, 0.00, 0.00, 0.00
201, 19592.94, 53127.43, -187500.02, 48731.07, -187500.02, -187500.02, -187500.02, -187500.02, 0.00, 0.00, 0.00
202, 19080.79, 52768.40, -187500.02, 52212.22, -187500.02, -187500.02, -187500.02, -187500.02, 0.00, 0.00, 0.00
203, 18549.98, 52374.45, -187500.02, 57292.44, -187500.02, -187500.02, -187500.02, -187500.02, 0.00, 0.00, 0.00
204, 18813.82, 52545.48, -187500.02, 56992.57, -187500.02, -187500.02, -187500.02, -187500.02, -3.55, -0.04, 1.07
205, 19385.35, 52959.98, -187500.02, 52307.64, -187500.02, -187500.02, -187500.02, -187500.02, 0.00, 0.00, 0.00
206, 19601.38, 53127.79, -187500.02, 48765.40, -187500.02, -187500.02, -187500.02, -187500.02, 0.00, 0.00, 0.00
207, 19076.28, 52752.51, -187500.02, 52159.11, -187500.02, -187500.02, -187500.02, -187500.02, 0.00, 0.00, 0.00
208, 18553.49, 52374.70, -187500.02, 57282.91, -187500.02, -187500.02, -187500.02, -187500.02, 0.00, 0.00, 0.00
209, 18806.71, 52547.34, -187500.02, 57081.08, -187500.02, -187500.02, -187500.02, -187500.02, 0.00, 0.00, 0.00
210, 19372.21, 52955.93, -187500.02, 52419.71, -187500.02, -187500.02, -187500.02, -187500.02, 0.00, 0.00, 0.00
211, 19597.36, 53119.25, -187500.02, 48898.71, -187500.02, -187500.02, -187500.02, -187500.02, 0.00, 0.00, 0.00
212, 19092.28, 52766.92, -187500.02, 52176.41, -187500.02, -187500.02, -187500.02, -187500.02, 0.00, 0.00, 0.00
213, 18562.47, 52383.08, -187500.02, 57275.52, -187500.02, -187500.02, -187500.02, -187500.02, 0.00, 0.00, 0.00
214, 18798.17, 52539.70, -187500.02, 57255.64, -187500.02, -187500.02, -187500.02, -187500.02, -3.55, -0.03, 1.07
215, 19349.86, 52934.94, -187500.02, 52631.83, -187500.02, -187500.02, -187500.02, -187500.02, 0.00, 0.00, 0.00
216, 19601.70, 53123.30, -187500.02, 48998.06, -187500.02, -187500.02, -187500.02, -187500.02, 0.00, 0.00, 0.00
217, 19093.62, 52761.02, -187500.02, 52152.27, -187500.02, -187500.02, -187500.02, -187500.02, 0.00, 0.00, 0.00
218, 18565.94, 52372.82, -187500.02, 57190.27, -187500.02, -187500.02, -187500.02, -187500.02, 0.00, 0.00, 0.00
219, 18785.59, 52522.93, -187500.02, 57371.83, -187500.02, -187500.02, -187500.02, -187500.02, 0.00, 0.00, 0.00
220, 19339.98, 52926.54, -187500.02, 52774.95, -187500.02, -187500.02, -187500.02, -187500.02, 0.00, 0.00, 0.00
221, 19603.73, 53123.10, -187500.02, 49013.69, -187500.02, -187500.02, -187500.02, -187500.02, 0.00, 0.00, 0.00
222, 19105.58, 52774.30, -187500.02, 52042.08, -187500.02, -187500.02, -187500.02, -187500.02, 0.00, 0.00, 0.00
223, 18577.56, 52391.05, -187500.02, 57112.48, -187500.02, -187500.02, -187500.02, -187500.02, 0.00, 0.00, 0.00
224, 18781.28, 52525.73, -187500.02, 57385.82, -187500.02, -187500.02, -187500.02, -187500.02, -3.54, -0.03, 1.07
225, 19333.12, 52915.29, -187500.02, 52783.89, -187500.02, -187500.02, -187500.02, -187500.02, 0.00, 0.00, 0.00
226, 19614.84, 53128.26, -187500.02, 48961.90, -187500.02, -187500.02, -187500.02, -187500.02, 0.00, 0.00, 0.00
227, 19118.41, 52780.25, -187500.02, 52032.20, -187500.02, -187500.02, -187500.02, -187500.02, 0.00, 0.00, 0.00
228, 18584.67, 52392.60, -187500.02, 57090.00, -187500.02, -187500.02, -187500.02, -187500.02, 0.00, 0.00, 0.00
229, 18769.01, 52518.24, -187500.02, 57444.50, -187500.02, -187500.02, -187500.02, -187500.02, 0.00, 0.00, 0.00
230, 19316.09, 52909.30, -187500.02, 52892.50, -187500.02, -187500.02, -187500.02, -187500.02, 0.00, 0.00, 0.00
231, 19611.31, 53130.65, -187500.02, 48951.57, -187500.02, -187500.02, -187500.02, -187500.02, 0.00, 0.00, 0.00
232, 19121.49, 52783.89, -187500.02, 51893.51, -187500.02, -187500.02, -187500.02, -187500.02, 0.00, 0.00, 0.00
233, 18576.29, 52385.02, -187500.02, 56947.55, -187500.02, -187500.02, -187500.02, -187500.02, 0.00, 0.00, 0.00
234, 18745.60, 52494.81, -187500.02, 57497.69, -187500.02, -187500.02, -187500.02, -187500.02, 0.00, 0.00, 0.00
235, 19299.08, 52894.15, -187500.02, 53054.64, -187500.02, -187500.02, -187500.02, -187500.02, -3.54, -0.03, 1.07
236, 19616.54, 53128.22, -187500.02, 49017.44, -187500.02, -187500.02, -187500.02, -187500.02, 0.00, 0.00, 0.00
237, 19142.99, 52795.78, -187500.02, 51790.91, -187500.02, -187500.02, -187500.02, -187500.02, 0.00, 0.00, 0.00
238, 18594.77, 52399.62, -187500.02, 56779.35, -187500.02, -187500.02, -187500.02, -187500.02, 0.00, 0.00, 0.00
239, 18739.12, 52495.66, -187500.02, 57569.06, -187500.02, -187500.02, -187500.02, -187500.02, 0.00, 0.00, 0.00
240, 19298.23, 52900.95, -187500.02, 53159.89, -187500.02, -187500.02, -187500.02, -187500.02, 0.00, 0.00, 0.00
241, 19627.00, 53139.97, -187500.02, 49016.50, -187500.02, -187500.02, -187500.02, -187500.02, 0.00, 0.00, 0.00
242, 19150.15, 52802.35, -187500.02, 51709.89, -187500.02, -187500.02, -187500.02, -187500.02, 0.00, 0.00, 0.00
243, 18600.32, 52407.75, -187500.02, 56707.22, -187500.02, -187500.02, -187500.02, -187500.02, 0.00, 0.00, 0.00
244, 18721.73, 52484.73, -187500.02, 57601.20, -187500.02, -187500.02, -187500.02, -187500.02, 0.00, 0.00, 0.00
245, 19276.10, 52881.88, -187500.02, 53246.70, -187500.02, -187500.02, -187500.02, -187500.02, -3.54, -0.02, 1.07
246, 19630.82, 53144.42, -187500.02, 49056.02, -187500.02, -187500.02, -187500.02, -187500.02, 0.00, 0.00, 0.00
247, 19154.44, 52805.41, -187500.02, 51675.96, -187500.02, -187500.02, -187500.02, -187500.02, 0.00, 0.00, 0.00
248, 18600.38, 52406.12, -187500.02, 56734.83, -187500.02, -187500.02, -187500.02, -187500.02, 0.00, 0.00, 0.00
249, 18723.21, 52478.63, -187500.02, 57635.00, -187500.02, -187500.02, -187500.02, -187500.02, 0.00, 0.00, 0.00
250, 19276.10, 52875.02, -187500.02, 53264.18, -187500.02, -187500.02, -187500.02, -187500.02, 0.00, 0.00, 0.00
251, 19605.45, 53121.89, -187500.02, 49179.71, -187500.02, -187500.02, -187500.02, -187500.02, 0.00, 0.00, 0.00
252, 19152.92, 52802.95, -187500.02, 51734.32, -187500.02, -187500.02, -187500.02, -187500.02, 0.00, 0.00, 0.00
253, 18623.90, 52415.29, -187500.02, 56595.42, -187500.02, -187500.02, -187500.02, -187500.02, 0.00, 0.00, 0.00
254, 18729.96, 52483.93, -187500.02, 57544.18, -187500.02, -187500.02, -187500.02, -187500.02, 0.00, 0.00, 0.00
255, 19266.09, 52869.05, -187500.02, 53341.00, -187500.02, -187500.02, -187500.02, -187500.02, -3.54, -0.03, 1.07
0, 19595.46, 53109.57, -187500.02, 49280.92, -187500.02, -187500.02, -187500.02, -187500.02, 0.00, 0.00, 0.00
1, 19152.96, 52799.67, -187500.02, 51643.61, -187500.02, -187500.02, -187500.02, -187500.02, 0.00, 0.00, 0.00
2, 18627.36, 52424.14, -187500.02, 56555.84, -187500.02, -187500.02, -187500.02, -187500.02, 0.00, 0.00, 0.00
3, 18734.70, 52486.01, -187500.02, 57504.22, -187500.02, -187500.02, -187500.02, -187500.02, 0.00, 0.00, 0.00
4, 19247.02, 52850.95, -187500.02, 53328.98, -187500.02, -187500.02, -187500.02, -187500.02, 0.00, 0.00, 0.00
5, 19589.81, 53106.98, -187500.02, 49323.28, -187500.02, -187500.02, -187500.02, -187500.02, 0.00, 0.00, 0.00
6, 19153.32, 52799.40, -187500.02, 51741.00, -187500.02, -187500.02, -187500.02, -187500.02, 0.00, 0.00, 0.00
7, 18646.16, 52435.61, -187500.02, 56444.39, -187500.02, -187500.02, -187500.02, -187500.02, 0.00, 0.00, 0.00
8, 18735.43, 52491.26, -187500.02, 57552.30, -187500.02, -187500.02, -187500.02, -187500.02, 0.00, 0.00, 0.00
9, 19257.88, 52868.20, -187500.02, 53472.32, -187500.02, -187500.02, -187500.02, -187500.02, 0.00, 0.00, 0.00
10, 19600.60, 53117.78, -187500.02, 49387.27, -187500.02, -187500.02, -187500.02, -187500.02, -3.54, -0.03, 1.07
11, 19159.56, 52800.74, -187500.02, 51612.50, -187500.02, -187500.02, -187500.02, -187500.02, 0.00, 0.00, 0.00
12, 18641.00, 52422.02, -187500.02, 56326.42, -187500.02, -187500.02, -187500.02, -187500.02, 0.00, 0.00, 0.00
13, 18724.14, 52473.38, -187500.02, 57600.00, -187500.02, -187500.02, -187500.02, -187500.02, 0.00, 0.00, 0.00
14, 19247.82, 52857.94, -187500.02, 53541.08, -187500.02, -187500.02, -187500.02, -187500.02, 0.00, 0.00, 0.00
15, 19607.38, 53122.23, -187500.02, 49367.83, -187500.02, -187500.02, -187500.02, -187500.02, 0.00, 0.00, 0.00
16, 19177.75, 52821.20, -187500.02, 51527.43, -187500.02, -187500.02, -187500.02, -187500.02, 0.00, 0.00, 0.00
17, 18650.76, 52437.44, -187500.02, 56275.52, -187500.02, -187500.02, -187500.02, -187500.02, 0.00, 0.00, 0.00
18, 18711.05, 52467.75, -187500.02, 57693.14, -187500.02, -187500.02, -187500.02, -187500.02, 0.00, 0.00, 0.00
19, 19232.36, 52843.72, -187500.02, 53693.49, -187500.02, -187500.02, -187500.02, -187500.02, 0.00, 0.00, 0.00
20, 19610.26, 53126.23, -187500.02, 49445.41, -187500.02, -187500.02, -187500.02, -187500.02, -3.55, -0.03, 1.07
21, 19187.77, 52832.14, -187500.02, 51476.13, -187500.02, -187500.02, -187500.02, -187500.02, 0.00, 0.00, 0.00
22, 18650.34, 52433.48, -187500.02, 56188.66, -187500.02, -187500.02, -187500.02, -187500.02, 0.00, 0.00, 0.00
23, 18690.39, 52448.03, -187500.02, 57692.67, -187500.02, -187500.02, -187500.02, -187500.02, 0.00, 0.00, 0.00
24, 19212.20, 52823.81, -187500.02, 53704.64, -187500.02, -187500.02, -187500.02, -187500.02, 0.00, 0.00, 0.00
25, 19596.24, 53106.69, -187500.02, 49439.22, -187500.02, -187500.02, -187500.02, -187500.02, 0.00, 0.00, 0.00
26, 19188.50, 52819.20, -187500.02, 51383.51, -187500.02, -187500.02, -187500.02, -187500.02, 0.00, 0.00, 0.00
27, 18659.41, 52436.25, -187500.02, 56118.41, -187500.02, -187500.02, -187500.02, -187500.02, 0.00, 0.00, 0.00
28, 18688.03, 52449.17, -187500.02, 57750.78, -187500.02, -187500.02, -187500.02, -187500.02, 0.00, 0.00, 0.00
29, 19215.37, 52831.30, -187500.02, 53837.19, -187500.02, -187500.02, -187500.02, -187500.02, 0.00, 0.00, 0.00
30, 19601.23, 53115.92, -187500.02, 49525.09, -187500.02, -187500.02, -187500.02, -187500.02, -3.55, -0.03, 1.07
31, 19198.72, 52834.56, -187500.02, 51312.05, -187500.02, -187500.02, -187500.02, -187500.02, 0.00, 0.00, 0.00
32, 18676.20, 52454.49, -187500.02, 56041.43, -187500.02, -187500.02, -187500.02, -187500.02, 0.00, 0.00, 0.00
33, 18673.79, 52434.87, -187500.02, 57792.42, -187500.02, -187500.02, -187500.02, -187500.02, 0.00, 0.00, 0.00
34, 19194.81, 52808.21, -187500.02, 53857.40, -187500.02, -187500.02, -187500.02, -187500.02, 0.00, 0.00, 0.00
35, 19595.91, 53103.05, -187500.02, 49520.60, -187500.02, -187500.02, -187500.02, -187500.02, 0.00, 0.00, 0.00
36, 19211.68, 52839.10, -187500.02, 51248.21, -187500.02, -187500.02, -187500.02, -187500.02, 0.00, 0.00, 0.00
37, 18672.24, 52446.82, -187500.02, 55973.82, -187500.02, -187500.02, -187500.02, -187500.02, 0.00, 0.00, 0.00
38, 18669.25, 52428.63, -187500.02, 57915.71, -187500.02, -187500.02, -187500.02, -187500.02, 0.00, 0.00, 0.00
39, 19196.71, 52809.05, -187500.02, 53978.93, -187500.02, -187500.02, -187500.02, -187500.02, 0.00, 0.00, 0.00
40, 19613.54, 53116.04, -187500.02, 49552.39, -187500.02, -187500.02, -187500.02, -187500.02, 0.00, 0.00, 0.00
41, 19241.97, 52861.45, -187500.02, 51152.59, -187500.02, -187500.02, -187500.02, -187500.02, -3.55, -0.03, 1.07
42, 18710.22, 52476.08, -187500.02, 55820.60, -187500.02, -187500.02, -187500.02, -187500.02, 0.00, 0.00, 0.00
43, 18676.92, 52442.89, -187500.02, 57927.14, -187500.02, -187500.02, -187500.02, -187500.02, 0.00, 0.00, 0.00
44, 19186.58, 52806.84, -187500.02, 54068.44, -187500.02, -187500.02, -187500.02, -187500.02, 0.00, 0.00, 0.00
45, 19618.66, 53129.45, -187500.02, 49603.01, -187500.02, -187500.02, -187500.02, -187500.02, 0.00, 0.00, 0.00
46, 19250.06, 52868.27, -187500.02, 51053.64, -187500.02, -187500.02, -187500.02, -187500.02, 0.00, 0.00, 0.00
47, 18708.16, 52475.28, -187500.02, 55711.48, -187500.02, -187500.02, -187500.02, -187500.02, 0.00, 0.00, 0.00
48, 18662.70, 52431.78, -187500.02, 57892.67, -187500.02, -187500.02, -187500.02, -187500.02, 0.00, 0.00, 0.00
49, 19174.89, 52796.07, -187500.02, 54150.43, -187500.02, -187500.02, -187500.02, -187500.02, 0.00, 0.00, 0.00
50, 19614.95, 53126.05, -187500.02, 49686.34, -187500.02, -187500.02, -187500.02, -187500.02, 0.00, 0.00, 0.00
51, 19256.61, 52870.59, -187500.02, 50976.68, -187500.02, -187500.02, -187500.02, -187500.02, -3.55, -0.04, 1.07
52, 18720.17, 52481.67, -187500.02, 55603.38, -187500.02, -187500.02, -187500.02, -187500.02, 0.00, 0.00, 0.00
53, 18650.27, 52419.93, -187500.02, 57993.41, -187500.02, -187500.02, -187500.02, -187500.02, 0.00, 0.00, 0.00
54, 19161.26, 52783.40, -187500.02, 54297.62, -187500.02, -187500.02, -187500.02, -187500.02, 0.00, 0.00, 0.00
55, 19608.31, 53111.63, -187500.02, 49703.91, -187500.02, -187500.02, -187500.02, -187500.02, 0.00, 0.00, 0.00
56, 19275.25, 52880.02, -187500.02, 50930.82, -187500.02, -187500.02, -187500.02, -187500.02, 0.00, 0.00, 0.00
57, 18723.14, 52479.05, -187500.02, 55555.17, -187500.02, -187500.02, -187500.02, -187500.02, 0.00, 0.00, 0.00
58, 18638.72, 52411.29, -187500.02, 57969.43, -187500.02, -187500.02, -187500.02, -187500.02, 0.00, 0.00, 0.00
59, 19159.98, 52786.08, -187500.02, 54358.86, -187500.02, -187500.02, -187500.02, -187500.02, 0.00, 0.00, 0.00
60, 19606.37, 53116.19, -187500.02, 49864.59, -187500.02, -187500.02, -187500.02, -187500.02, 0.00, 0.00, 0.00
61, 19276.48, 52884.36, -187500.02, 50889.06, -187500.02, -187500.02, -187500.02, -187500.02, 0.00, 0.00, 0.00
62, 18742.96, 52493.65, -187500.02, 55422.18, -187500.02, -187500.02, -187500.02, -187500.02, -3.54, -0.03, 1.06
63, 18636.24, 52409.23, -187500.02, 57962.39, -187500.02, -187500.02, -187500.02, -187500.02, 0.00, 0.00, 0.00
64, 19143.58, 52772.20, -187500.02, 54390.98, -187500.02, -187500.02, -187500.02, -187500.02, 0.00, 0.00, 0.00
65, 19599.93, 53109.98, -187500.02, 49825.86, -187500.02, -187500.02, -187500.02, -187500.02, 0.00, 0.00, 0.00
66, 19285.58, 52890.24, -187500.02, 50754.11, -187500.02, -187500.02, -187500.02, -187500.02, 0.00, 0.00, 0.00
67, 18752.08, 52501.65, -187500.02, 55408.86, -187500.02, -187500.02, -187500.02, -187500.02, 0.00, 0.00, 0.00
68, 18633.62, 52405.74, -187500.02, 58079.13, -187500.02, -187500.02, -187500.02, -187500.02, 0.00, 0.00, 0.00
69, 19140.13, 52771.75, -187500.02, 54514.43, -187500.02, -187500.02, -187500.02, -187500.02, 0.00, 0.00, 0.00
70, 19601.16, 53108.50, -187500.02, 49868.95, -187500.02, -187500.02, -187500.02, -187500.02, 0.00, 0.00, 0.00
71, 19295.54, 52898.42, -187500.02, 50689.46, -187500.02, -187500.02, -187500.02, -187500.02, 0.00, 0.00, 0.00
72, 18759.44, 52511.09, -187500.02, 55284.94, -187500.02, -187500.02, -187500.02, -187500.02, -3.55, -0.03, 1.06
73, 18619.74, 52396.29, -187500.02, 58078.32, -187500.02, -187500.02, -187500.02, -187500.02, 0.00, 0.00, 0.00
74, 19127.48, 52758.32, -187500.02, 54588.52, -187500.02, -187500.02, -187500.02, -187500.02, 0.00, 0.00, 0.00
75, 19596.47, 53102.85, -187500.02, 49974.79, -187500.02, -187500.02, -187500.02, -187500.02, 0.00, 0.00, 0.00
76, 19300.75, 52896.61, -187500.02, 50668.52, -187500.02, -187500.02, -187500.02, -187500.02, 0.00, 0.00, 0.00
77, 18766.14, 52509.07, -187500.02, 55119.42, -187500.02, -187500.02, -187500.02, -187500.02, 0.00, 0.00, 0.00
78, 18614.20, 52387.21, -187500.02, 58057.71, -187500.02, -187500.02, -187500.02, -187500.02, 0.00, 0.00, 0.00
79, 19114.05, 52742.14, -187500.02, 54679.14, -187500.02, -187500.02, -187500.02, -187500.02, 0.00, 0.00, 0.00
80, 19590.70, 53093.97, -187500.02, 49948.91, -187500.02, -187500.02, -187500.02, -187500.02, 0.00, 0.00, 0.00
81, 19313.27, 52905.06, -187500.02, 50487.22, -187500.02, -187500.02, -187500.02, -187500.02, 0.00, 0.00, 0.00
82, 18774.28, 52512.83, -187500.02, 54977.91, -187500.02, -187500.02, -187500.02, -187500.02, -3.55, -0.03, 1.06
83, 18604.36, 52382.05, -187500.02, 58009.61, -187500.02, -187500.02, -187500.02, -187500.02, 0.00, 0.00, 0.00
84, 19106.25, 52746.56, -187500.02, 54670.22, -187500.02, -187500.02, -187500.02, -187500.02, 0.00, 0.00, 0.00
85, 19595.42, 53111.30, -187500.02, 49989.81, -187500.02, -187500.02, -187500.02, -187500.02, 0.00, 0.00, 0.00
86, 19329.74, 52925.38, -187500.02, 50362.34, -187500.02, -187500.02, -187500.02, -187500.02, 0.00, 0.00, 0.00
87, 18789.86, 52524.90, -187500.02, 54827.96, -187500.02, -187500.02, -187500.02, -187500.02, 0.00, 0.00, 0.00
88, 18590.79, 52370.16, -187500.02, 58006.08, -187500.02, -187500.02, -187500.02, -187500.02, 0.00, 0.00, 0.00
89, 19085.77, 52730.00, -187500.02, 54712.84, -187500.02, -187500.02, -187500.02, -187500.02, 0.00, 0.00, 0.00
90, 19584.11, 53095.34, -187500.02, 50045.42, -187500.02, -187500.02, -187500.02, -187500.02, 0.00, 0.00, 0.00
91, 19335.78, 52922.49, -187500.02, 50285.68, -187500.02, -187500.02, -187500.02, -187500.02, 0.00, 0.00, 0.00
92, 18793.17, 52524.77, -187500.02, 54765.08, -187500.02, -187500.02, -187500.02, -187500.02, 0.00, 0.00, 0.00
93, 18594.46, 52372.41, -187500.02, 58049.94, -187500.02, -187500.02, -187500.02, -187500.02, -3.54, -0.02, 1.06
94, 19094.78, 52732.88, -187500.02, 54864.90, -187500.02, -187500.02, -187500.02, -187500.02, 0.00, 0.00, 0.00
95, 19579.75, 53092.75, -187500.02, 50208.99, -187500.02, -187500.02, -187500.02, -187500.02, 0.00, 0.00, 0.00
96, 19339.67, 52929.33, -187500.02, 50295.25, -187500.02, -187500.02, -187500.02, -187500.02, 0.00, 0.00, 0.00
97, 18802.91, 52539.83, -187500.02, 54729.45, -187500.02, -187500.02, -187500.02, -187500.02, 0.00, 0.00, 0.00
98, 18588.34, 52376.91, -187500.02, 58137.54, -187500.02, -187500.02, -187500.02, -187500.02, 0.00, 0.00, 0.00
99, 19078.31, 52723.88, -187500.02, 55024.70, -187500.02, -187500.02, -187500.02, -187500.02, 0.00, 0.00, 0.00
100, 19575.77, 53091.89, -187500.02, 50336.33, -187500.02, -187500.02, -187500.02, -187500.02, 0.00, 0.00, 0.00
101, 19352.12, 52939.52, -187500.02, 50281.66, -187500.02, -187500.02, -187500.02, -187500.02, 0.00, 0.00, 0.00
102, 18816.61, 52549.87, -187500.02, 54767.38, -187500.02, -187500.02, -187500.02, -187500.02, 0.00, 0.00, 0.00
103, 18596.49, 52388.89, -187500.02, 58196.95, -187500.02, -187500.02, -187500.02, -187500.02, -3.55, -0.02, 1.07
104, 19081.04, 52735.74, -187500.02, 55032.12, -187500.02, -187500.02, -187500.02, -187500.02, 0.00, 0.00, 0.00
105, 19570.76, 53088.34, -187500.02, 50366.50, -187500.02, -187500.02, -187500.02, -187500.02, 0.00, 0.00, 0.00
106, 19362.38, 52942.96, -187500.02, 50217.13, -187500.02, -187500.02, -187500.02, -187500.02, 0.00, 0.00, 0.00
107, 18823.43, 52550.13, -187500.02, 54620.93, -187500.02, -187500.02, -187500.02, -187500.02, 0.00, 0.00, 0.00
108, 18577.79, 52361.30, -187500.02, 58194.35, -187500.02, -187500.02, -187500.02, -187500.02, 0.00, 0.00, 0.00
109, 19068.74, 52711.76, -187500.02, 55124.45, -187500.02, -187500.02, -187500.02, -187500.02, 0.00, 0.00, 0.00
110, 19566.56, 53079.76, -187500.02, 50495.23, -187500.02, -187500.02, -187500.02, -187500.02, 0.00, 0.00, 0.00
111, 19398.88, 52968.52, -187500.02, 50031.16, -187500.02, -187500.02, -187500.02, -187500.02, 0.00, 0.00, 0.00
112, 18845.74, 52570.07, -187500.02, 54395.45, -187500.02, -187500.02, -187500.02, -187500.02, 0.00, 0.00, 0.00
113, 18544.64, 52348.43, -187500.02, 58382.33, -187500.02, -187500.02, -187500.02, -187500.02, -3.55, -0.03, 1.07
114, 19033.34, 52690.97, -187500.02, 55446.47, -187500.02, -187500.02, -187500.02, -187500.02, 0.00, 0.00, 0.00
115, 19566.61, 53074.68, -187500.02, 50464.71, -187500.02, -187500.02, -187500.02, -187500.02, 0.00, 0.00, 0.00
116, 19408.11, 52972.29, -187500.02, 49788.46, -187500.02, -187500.02, -187500.02, -187500.02, 0.00, 0.00, 0.00
117, 18857.29, 52582.16, -187500.02, 54184.72, -187500.02, -187500.02, -187500.02, -187500.02, 0.00, 0.00, 0.00
118, 18544.15, 52349.08, -187500.02, 58200.34, -187500.02, -187500.02, -187500.02, -187500.02, 0.00, 0.00, 0.00
119, 19021.42, 52680.60, -187500.02, 55143.63, -187500.02, -187500.02, -187500.02, -187500.02, 0.00, 0.00, 0.00
120, 19562.16, 53076.03, -187500.02, 49900.69, -187500.02, -187500.02, -187500.02, -187500.02, 0.00, 0.00, 0.00
121, 19420.49, 52984.72, -187500.02, 48940.93, -187500.02, -187500.02, -187500.02, -187500.02, 0.00, 0.00, 0.00
122, 18862.93, 52579.06, -187500.02, 53401.09, -187500.02, -187500.02, -187500.02, -187500.02, 0.00, 0.00, 0.00
123, 18532.43, 52330.89, -187500.02, 57648.75, -187500.02, -187500.02, -187500.02, -187500.02, 0.00, 0.00, 0.00
124, 19000.23, 52660.91, -187500.02, 55025.77, -187500.02, -187500.02, -187500.02, -187500.02, -3.55, -0.03, 1.07
125, 19548.37, 53060.63, -187500.02, 50105.41, -187500.02, -187500.02, -187500.02, -187500.02, 0.00, 0.00, 0.00
126, 19431.06, 52988.25, -187500.02, 49368.70, -187500.02, -187500.02, -187500.02, -187500.02, 0.00, 0.00, 0.00
127, 18876.03, 52592.76, -187500.02, 54080.36, -187500.02, -187500.02, -187500.02, -187500.02, 0.00, 0.00, 0.00
128, 18529.66, 52336.90, -187500.02, 58453.03, -187500.02, -187500.02, -187500.02, -187500.02, 0.00, 0.00, 0.00
129, 19004.53, 52673.45, -187500.02, 55802.31, -187500.02, -187500.02, -187500.02, -187500.02, 0.00, 0.00, 0.00
130, 19558.31, 53075.63, -187500.02, 50632.36, -187500.02, -187500.02, -187500.02, -187500.02, 0.00, 0.00, 0.00
131, 19445.21, 52998.58, -187500.02, 49534.68, -187500.02, -187500.02, -187500.02, -187500.02, 0.00, 0.00, 0.00
132, 18884.72, 52591.95, -187500.02, 53958.03, -187500.02, -187500.02, -187500.02, -187500.02, 0.00, 0.00, 0.00
133, 18529.62, 52334.77, -187500.02, 58338.74, -187500.02, -187500.02, -187500.02, -187500.02, 0.00, 0.00, 0.00
134, 18992.52, 52663.14, -187500.02, 55854.19, -187500.02, -187500.02, -187500.02, -187500.02, -3.55, -0.03, 1.07
135, 19544.23, 53064.07, -187500.02, 50816.55, -187500.02, -187500.02, -187500.02, -187500.02, 0.00, 0.00, 0.00
136, 19458.24, 53008.03, -187500.02, 49552.68, -187500.02, -187500.02, -187500.02, -187500.02, 0.00, 0.00, 0.00
137, 18901.75, 52610.66, -187500.02, 53971.14, -187500.02, -187500.02, -187500.02, -187500.02, 0.00, 0.00, 0.00
138, 18522.02, 52329.99, -187500.02, 58350.70, -187500.02, -187500.02, -187500.02, -187500.02, 0.00, 0.00, 0.00
139, 18980.56, 52653.06, -187500.02, 55929.54, -187500.02, -187500.02, -187500.02, -187500.02, 0.00, 0.00, 0.00
140, 19535.33, 53054.21, -187500.02, 50927.64, -187500.02, -187500.02, -187500.02, -187500.02, 0.00, 0.00, 0.00
141, 19470.78, 53015.14, -187500.02, 49505.58, -187500.02, -187500.02, -187500.02, -187500.02, 0.00, 0.00, 0.00
142, 18910.74, 52613.48, -187500.02, 53720.09, -187500.02, -187500.02, -187500.02, -187500.02, 0.00, 0.00, 0.00
143, 18518.89, 52320.76, -187500.02, 58239.43, -187500.02, -187500.02, -187500.02, -187500.02, 0.00, 0.00, 0.00
144, 18966.37, 52632.75, -187500.02, 55977.21, -187500.02, -187500.02, -187500.02, -187500.02, -3.55, -0.02, 1.07
145, 19534.08, 53051.28, -187500.02, 50970.65, -187500.02, -187500.02, -187500.02, -187500.02, 0.00, 0.00, 0.00
146, 19489.13, 53029.20, -187500.02, 49386.27, -187500.02, -187500.02, -187500.02, -187500.02, 0.00, 0.00, 0.00
147, 18927.05, 52626.71, -187500.02, 53654.15, -187500.02, -187500.02, -187500.02, -187500.02, 0.00, 0.00, 0.00
148, 18522.58, 52329.84, -187500.02, 58235.21, -187500.02, -187500.02, -187500.02, -187500.02, 0.00, 0.00, 0.00
149, 18956.63, 52628.86, -187500.02, 56044.38, -187500.02, -187500.02, -187500.02, -187500.02, 0.00, 0.00, 0.00
150, 19519.60, 53039.35, -187500.02, 51056.50, -187500.02, -187500.02, -187500.02, -187500.02, 0.00, 0.00, 0.00
151, 19500.80, 53038.86, -187500.02, 49309.69, -187500.02, -187500.02, -187500.02, -187500.02, 0.00, 0.00, 0.00
152, 18938.01, 52630.04, -187500.02, 53552.09, -187500.02, -187500.02, -187500.02, -187500.02, 0.00, 0.00, 0.00
153, 18515.16, 52318.91, -187500.02, 58202.40, -187500.02, -187500.02, -187500.02, -187500.02, 0.00, 0.00, 0.00
154, 18951.26, 52625.19, -187500.02, 56106.72, -187500.02, -187500.02, -187500.02, -187500.02, 0.00, 0.00, 0.00
155, 19516.78, 53040.55, -187500.02, 51105.61, -187500.02, -187500.02, -187500.02, -187500.02, -3.55, -0.02, 1.07
156, 19499.64, 53039.21, -187500.02, 49261.97, -187500.02, -187500.02, -187500.02, -187500.02, 0.00, 0.00, 0.00
157, 18942.12, 52633.08, -187500.02, 53450.55, -187500.02, -187500.02, -187500.02, -187500.02, 0.00, 0.00, 0.00
158, 18513.46, 52314.93, -187500.02, 58147.97, -187500.02, -187500.02, -187500.02, -187500.02, 0.00, 0.00, 0.00
159, 18943.21, 52618.82, -187500.02, 56111.50, -187500.02, -187500.02, -187500.02, -187500.02, 0.00, 0.00, 0.00
160, 19505.03, 53029.42, -187500.02, 51183.30, -187500.02, -187500.02, -187500.02, -187500.02, 0.00, 0.00, 0.00
161, 19515.49, 53048.20, -187500.02, 49232.58, -187500.02, -187500.02, -187500.02, -187500.02, 0.00, 0.00, 0.00
162, 18955.55, 52646.20, -187500.02, 53309.78, -187500.02, -187500.02, -187500.02, -187500.02, 0.00, 0.00, 0.00
163, 18522.11, 52328.98, -187500.02, 58037.93, -187500.02, -187500.02, -187500.02, -187500.02, 0.00, 0.00, 0.00
164, 18942.07, 52620.95, -187500.02, 56178.56, -187500.02, -187500.02, -187500.02, -187500.02, 0.00, 0.00, 0.00
165, 19498.30, 53022.58, -187500.02, 51219.22, -187500.02, -187500.02, -187500.02, -187500.02, -3.55, -0.03, 1.07
166, 19516.67, 53046.43, -187500.02, 49083.63, -187500.02, -187500.02, -187500.02, -187500.02, 0.00, 0.00, 0.00
167, 18967.53, 52655.99, -187500.02, 53189.73, -187500.02, -187500.02, -187500.02, -187500.02, 0.00, 0.00, 0.00
168, 18513.77, 52319.44, -187500.02, 57910.30, -187500.02, -187500.02, -187500.02, -187500.02, 0.00, 0.00, 0.00
169, 18907.63, 52592.85, -187500.02, 56298.25, -187500.02, -187500.02, -187500.02, -187500.02, 0.00, 0.00, 0.00
170, 19473.38, 53004.50, -187500.02, 51390.14, -187500.02, -187500.02, -187500.02, -187500.02, 0.00, 0.00, 0.00
171, 19513.83, 53041.09, -187500.02, 49022.58, -187500.02, -187500.02, -187500.02, -187500.02, 0.00, 0.00, 0.00
172, 18977.70, 52657.29, -187500.02, 53025.33, -187500.02, -187500.02, -187500.02, -187500.02, 0.00, 0.00, 0.00
173, 18546.92, 52345.41, -187500.02, 57598.70, -187500.02, -187500.02, -187500.02, -187500.02, 0.00, 0.00, 0.00
174, 18931.61, 52619.78, -187500.02, 56049.57, -187500.02, -187500.02, -187500.02, -187500.02, 0.00, 0.00, 0.00
175, 19466.89, 53011.00, -187500.02, 51367.57, -187500.02, -187500.02, -187500.02, -187500.02, -3.55, -0.03, 1.07
176, 19516.74, 53050.43, -187500.02, 49051.13, -187500.02, -187500.02, -187500.02, -187500.02, 0.00, 0.00, 0.00
177, 18986.09, 52671.39, -187500.02, 52962.77, -187500.02, -187500.02, -187500.02, -187500.02, 0.00, 0.00, 0.00
178, 18520.56, 52327.53, -187500.02, 57781.67, -187500.02, -187500.02, -187500.02, -187500.02, 0.00, 0.00, 0.00
179, 18898.80, 52590.90, -187500.02, 56322.77, -187500.02, -187500.02, -187500.02, -187500.02, 0.00, 0.00, 0.00
180, 19454.02, 52996.41, -187500.02, 51435.23, -187500.02, -187500.02, -187500.02, -187500.02, 0.00, 0.00, 0.00
181, 19538.15, 53067.15, -187500.02, 48958.39, -187500.02, -187500.02, -187500.02, -187500.02, 0.00, 0.00, 0.00
182, 18998.83, 52675.66, -187500.02, 52731.18, -187500.02, -187500.02, -187500.02, -187500.02, 0.00, 0.00, 0.00
183, 18520.90, 52319.20, -187500.02, 57584.82, -187500.02, -187500.02, -187500.02, -187500.02, 0.00, 0.00, 0.00
184, 18887.42, 52577.02, -187500.02, 56361.13, -187500.02, -187500.02, -187500.02, -187500.02, 0.00, 0.00, 0.00
185, 19445.66, 52985.46, -187500.02, 51494.21, -187500.02, -187500.02, -187500.02, -187500.02, 0.00, 0.00, 0.00
186, 19548.12, 53073.99, -187500.02, 48868.69, -187500.02, -187500.02, -187500.02, -187500.02, -3.55, -0.03, 1.07
187, 19004.68, 52688.29, -187500.02, 52698.32, -187500.02, -187500.02, -187500.02, -187500.02, 0.00, 0.00, 0.00
188, 18519.83, 52333.72, -187500.02, 57616.56, -187500.02, -187500.02, -187500.02, -187500.02, 0.00, 0.00, 0.00
189, 18865.21, 52565.13, -187500.02, 56468.20, -187500.02, -187500.02, -187500.02, -187500.02, 0.00, 0.00, 0.00
190, 19427.69, 52970.48, -187500.02, 51626.36, -187500.02, -187500.02, -187500.02, -187500.02, 0.00, 0.00, 0.00
191, 19553.73, 53074.68, -187500.02, 48853.34, -187500.02, -187500.02, -187500.02, -187500.02, 0.00, 0.00, 0.00
192, 19013.98, 52690.12, -187500.02, 52644.14, -187500.02, -187500.02, -187500.02, -187500.02, 0.00, 0.00, 0.00
193, 18521.91, 52327.00, -187500.02, 57652.39, -187500.02, -187500.02, -187500.02, -187500.02, 0.00, 0.00, 0.00
194, 18861.88, 52559.99, -187500.02, 56661.07, -187500.02, -187500.02, -187500.02, -187500.02, 0.00, 0.00, 0.00
195, 19419.29, 52962.21, -187500.02, 51863.36, -187500.02, -187500.02, -187500.02, -187500.02, 0.00, 0.00, 0.00
196, 19552.41, 53070.46, -187500.02, 48887.31, -187500.02, -187500.02, -187500.02, -187500.02, -3.54, -0.03, 1.07
197, 19022.05, 52696.98, -187500.02, 52691.60, -187500.02, -187500.02, -187500.02, -187500.02, 0.00, 0.00, 0.00
198, 18524.90, 52336.38, -187500.02, 57700.42, -187500.02, -187500.02, -187500.02, -187500.02, 0.00, 0.00, 0.00
199, 18857.16, 52563.93, -187500.02, 56816.99, -187500.02, -187500.02, -187500.02, -187500.02, 0.00, 0.00, 0.00
200, 19405.40, 52953.52, -187500.02, 51955.36, -187500.02, -187500.02, -187500.02, -187500.02, 0.00, 0.00, 0.00
201, 19562.34, 53077.30, -187500.02, 48935.07, -187500.02, -187500.02, -187500.02, -187500.02, 0.00, 0.00, 0.00
202, 19038.23, 52710.39, -187500.02, 52620.68, -187500.02, -187500.02, -187500.02, -187500.02, 0.00, 0.00, 0.00
203, 18527.47, 52341.32, -187500.02, 57655.92, -187500.02, -187500.02, -187500.02, -187500.02, 0.00, 0.00, 0.00
204, 18845.63, 52551.83, -187500.02, 56825.20, -187500.02, -187500.02, -187500.02, -187500.02, 0.00, 0.00, 0.00
205, 19395.23, 52946.68, -187500.02, 52107.26, -187500.02, -187500.02, -187500.02, -187500.02, 0.00, 0.00, 0.00
206, 19565.91, 53079.87, -187500.02, 48975.06, -187500.02, -187500.02, -187500.02, -187500.02, -3.54, -0.03, 1.07
207, 19038.19, 52704.85, -187500.02, 52526.64, -187500.02, -187500.02, -187500.02, -187500.02, 0.00, 0.00, 0.00
208, 18526.78, 52331.38, -187500.02, 57603.82, -187500.02, -187500.02, -187500.02, -187500.02, 0.00, 0.00, 0.00
209, 18828.57, 52541.62, -187500.02, 56994.53, -187500.02, -187500.02, -187500.02, -187500.02, 0.00, 0.00, 0.00
210, 19397.49, 52958.41, -187500.02, 52215.13, -187500.02, -187500.02, -187500.02, -187500.02, 0.00, 0.00, 0.00
211, 19588.46, 53105.93, -187500.02, 48957.00, -187500.02, -187500.02, -187500.02, -187500.02, 0.00, 0.00, 0.00
212, 19065.03, 52725.37, -187500.02, 52470.45, -187500.02, -187500.02, -187500.02, -187500.02, 0.00, 0.00, 0.00
213, 18533.26, 52332.94, -187500.02, 57596.60, -187500.02, -187500.02, -187500.02, -187500.02, 0.00, 0.00, 0.00
214, 18814.85, 52526.73, -187500.02, 57006.36, -187500.02, -187500.02, -187500.02, -187500.02, 0.00, 0.00, 0.00
215, 19375.86, 52934.50, -187500.02, 52300.91, -187500.02, -187500.02, -187500.02, -187500.02, 0.00, 0.00, 0.00
216, 19584.13, 53091.94, -187500.02, 48940.80, -187500.02, -187500.02, -187500.02, -187500.02, 0.00, 0.00, 0.00
217, 19066.46, 52727.61, -187500.02, 52320.36, -187500.02, -187500.02, -187500.02, -187500.02, -3.55, -0.03, 1.07
218, 18538.42, 52341.86, -187500.02, 57405.47, -187500.02, -187500.02, -187500.02, -187500.02, 0.00, 0.00, 0.00
219, 18814.16, 52527.67, -187500.02, 57150.70, -187500.02, -187500.02, -187500.02, -187500.02, 0.00, 0.00, 0.00
220, 19373.13, 52929.58, -187500.02, 52407.11, -187500.02, -187500.02, -187500.02, -187500.02, 0.00, 0.00, 0.00
221, 19597.74, 53101.24, -187500.02, 48878.30, -187500.02, -187500.02, -187500.02, -187500.02, 0.00, 0.00, 0.00
222, 19077.24, 52731.34, -187500.02, 52246.11, -187500.02, -187500.02, -187500.02, -187500.02, 0.00, 0.00, 0.00
223, 18543.43, 52341.12, -187500.02, 57356.79, -187500.02, -187500.02, -187500.02, -187500.02, 0.00, 0.00, 0.00
224, 18796.74, 52517.07, -187500.02, 57223.04, -187500.02, -187500.02, -187500.02, -187500.02, 0.00, 0.00, 0.00
225, 19357.35, 52921.04, -187500.02, 52578.21, -187500.02, -187500.02, -187500.02, -187500.02, 0.00, 0.00, 0.00
226, 19606.73, 53105.35, -187500.02, 48883.13, -187500.02, -187500.02, -187500.02, -187500.02, 0.00, 0.00, 0.00
227, 19088.34, 52737.40, -187500.02, 52102.79, -187500.02, -187500.02, -187500.02, -187500.02, -3.55, -0.03, 1.07
228, 18549.22, 52344.41, -187500.02, 57231.55, -187500.02, -187500.02, -187500.02, -187500.02, 0.00, 0.00, 0.00
229, 18776.20, 52499.55, -187500.02, 57311.75, -187500.02, -187500.02, -187500.02, -187500.02, 0.00, 0.00, 0.00
230, 19340.88, 52906.78, -187500.02, 52607.15, -187500.02, -187500.02, -187500.02, -187500.02, 0.00, 0.00, 0.00
231, 19601.45, 53097.30, -187500.02, 48875.48, -187500.02, -187500.02, -187500.02, -187500.02, 0.00, 0.00, 0.00
232, 19092.93, 52736.75, -187500.02, 52036.51, -187500.02, -187500.02, -187500.02, -187500.02, 0.00, 0.00, 0.00
233, 18551.23, 52342.29, -187500.02, 57134.32, -187500.02, -187500.02, -187500.02, -187500.02, 0.00, 0.00, 0.00
234, 18771.17, 52497.74, -187500.02, 57358.73, -187500.02, -187500.02, -187500.02, -187500.02, 0.00, 0.00, 0.00
235, 19331.64, 52906.15, -187500.02, 52724.50, -187500.02, -187500.02, -187500.02, -187500.02, 0.00, 0.00, 0.00
236, 19608.71, 53110.13, -187500.02, 48974.17, -187500.02, -187500.02, -187500.02, -187500.02, 0.00, 0.00, 0.00
237, 19105.89, 52747.59, -187500.02, 52023.84, -187500.02, -187500.02, -187500.02, -187500.02, -3.55, -0.03, 1.07
238, 18565.72, 52356.12, -187500.02, 57094.36, -187500.02, -187500.02, -187500.02, -187500.02, 0.00, 0.00, 0.00
239, 18760.18, 52487.62, -187500.02, 57478.65, -187500.02, -187500.02, -187500.02, -187500.02, 0.00, 0.00, 0.00
240, 19320.82, 52890.84, -187500.02, 52859.17, -187500.02, -187500.02, -187500.02, -187500.02, 0.00, 0.00, 0.00
241, 19616.18, 53108.39, -187500.02, 48950.61, -187500.02, -187500.02, -187500.02, -187500.02, 0.00, 0.00, 0.00
242, 19124.80, 52764.11, -187500.02, 51930.77, -187500.02, -187500.02, -187500.02, -187500.02, 0.00, 0.00, 0.00
243, 18582.26, 52371.79, -187500.02, 57046.05, -187500.02, -187500.02, -187500.02, -187500.02, 0.00, 0.00, 0.00
244, 18752.87, 52482.86, -187500.02, 57532.96, -187500.02, -187500.02, -187500.02, -187500.02, 0.00, 0.00, 0.00
245, 19318.23, 52892.79, -187500.02, 53000.81, -187500.02, -187500.02, -187500.02, -187500.02, 0.00, 0.00, 0.00
246, 19630.53, 53125.65, -187500.02, 48902.53, -187500.02, -187500.02, -187500.02, -187500.02, 0.00, 0.00, 0.00
247, 19125.98, 52766.48, -187500.02, 51812.26, -187500.02, -187500.02, -187500.02, -187500.02, 0.00, 0.00, 0.00
248, 18577.45, 52368.82, -187500.02, 56939.39, -187500.02, -187500.02, -187500.02, -187500.02, -3.55, -0.02, 1.07
249, 18730.00, 52467.32, -187500.02, 57580.95, -187500.02, -187500.02, -187500.02, -187500.02, 0.00, 0.00, 0.00
250, 19285.44, 52862.34, -187500.02, 53061.61, -187500.02, -187500.02, -187500.02, -187500.02, 0.00, 0.00, 0.00
251, 19613.83, 53110.71, -187500.02, 48998.69, -187500.02, -187500.02, -187500.02, -187500.02, 0.00, 0.00, 0.00
252, 19134.50, 52771.42, -187500.02, 51716.23, -187500.02, -187500.02, -187500.02, -187500.02, 0.00, 0.00, 0.00
253, 18580.60, 52367.72, -187500.02, 56828.17, -187500.02, -187500.02, -187500.02, -187500.02, 0.00, 0.00, 0.00
254, 18718.27, 52450.36, -187500.02, 57667.79, -187500.02, -187500.02, -187500.02, -187500.02, 0.00, 0.00, 0.00
255, 19281.08, 52859.59, -187500.02, 53226.83, -187500.02, -187500.02, -187500.02, -187500.02, 0.00, 0.00, 0.00
0, 19634.96, 53127.73, -187500.02, 48994.82, -187500.02, -187500.02, -187500.02, -187500.02, 0.00, 0.00, 0.00
1, 19150.82, 52784.29, -187500.02, 51683.02, -187500.02, -187500.02, -187500.02, -187500.02, 0.00, 0.00, 0.00
2, 18588.29, 52377.06, -187500.02, 56770.59, -187500.02, -187500.02, -187500.02, -187500.02, -3.54, -0.03, 1.07
3, 18711.14, 52453.30, -187500.02, 57706.17, -187500.02, -187500.02, -187500.02, -187500.02, 0.00, 0.00, 0.00
4, 19273.89, 52854.70, -187500.02, 53274.93, -187500.02, -187500.02, -187500.02, -187500.02, 0.00, 0.00, 0.00
5, 19628.38, 53117.76, -187500.02, 49040.08, -187500.02, -187500.02, -187500.02, -187500.02, 0.00, 0.00, 0.00
6, 19157.59, 52790.21, -187500.02, 51573.74, -187500.02, -187500.02, -187500.02, -187500.02, 0.00, 0.00, 0.00
7, 18603.65, 52387.17, -187500.02, 56664.11, -187500.02, -187500.02, -187500.02, -187500.02, 0.00, 0.00, 0.00
8, 18701.82, 52446.71, -187500.02, 57803.38, -187500.02, -187500.02, -187500.02, -187500.02, 0.00, 0.00, 0.00
9, 19263.11, 52847.86, -187500.02, 53396.37, -187500.02, -187500.02, -187500.02, -187500.02, 0.00, 0.00, 0.00
10, 19634.76, 53121.04, -187500.02, 49045.67, -187500.02, -187500.02, -187500.02, -187500.02, 0.00, 0.00, 0.00
11, 19169.19, 52787.96, -187500.02, 51549.20, -187500.02, -187500.02, -187500.02, -187500.02, 0.00, 0.00, 0.00
12, 18608.05, 52384.02, -187500.02, 56680.51, -187500.02, -187500.02, -187500.02, -187500.02, 0.00, 0.00, 0.00
13, 18692.14, 52435.56, -187500.02, 57875.53, -187500.02, -187500.02, -187500.02, -187500.02, -3.55, -0.02, 1.07
14, 19243.82, 52824.41, -187500.02, 53443.04, -187500.02, -187500.02, -187500.02, -187500.02, 0.00, 0.00, 0.00
15, 19621.79, 53106.74, -187500.02, 49005.15, -187500.02, -187500.02, -187500.02, -187500.02, 0.00, 0.00, 0.00
16, 19182.24, 52802.95, -187500.02, 51391.11, -187500.02, -187500.02, -187500.02, -187500.02, 0.00, 0.00, 0.00
17, 18610.69, 52382.56, -187500.02, 56483.19, -187500.02, -187500.02, -187500.02, -187500.02, 0.00, 0.00, 0.00
18, 18678.26, 52423.22, -187500.02, 57929.08, -187500.02, -187500.02, -187500.02, -187500.02, 0.00, 0.00, 0.00
19, 19236.65, 52828.82, -187500.02, 53608.55, -187500.02, -187500.02, -187500.02, -187500.02, 0.00, 0.00, 0.00
20, 19628.38, 53105.69, -187500.02, 49064.69, -187500.02, -187500.02, -187500.02, -187500.02, 0.00, 0.00, 0.00
21, 19184.39, 52799.60, -187500.02, 51364.22, -187500.02, -187500.02, -187500.02, -187500.02, 0.00, 0.00, 0.00
22, 18621.26, 52391.73, -187500.02, 56469.20, -187500.02, -187500.02, -187500.02, -187500.02, 0.00, 0.00, 0.00
23, 18677.68, 52425.81, -187500.02, 57982.57, -187500.02, -187500.02, -187500.02, -187500.02, -3.55, -0.03, 1.07
24, 19237.23, 52823.27, -187500.02, 53620.29, -187500.02, -187500.02, -187500.02, -187500.02, 0.00, 0.00, 0.00
25, 19635.36, 53115.59, -187500.02, 49082.62, -187500.02, -187500.02, -187500.02, -187500.02, 0.00, 0.00, 0.00
26, 19196.33, 52812.61, -187500.02, 51288.18, -187500.02, -187500.02, -187500.02, -187500.02, 0.00, 0.00, 0.00
27, 18628.37, 52392.53, -187500.02, 56378.03, -187500.02, -187500.02, -187500.02, -187500.02, 0.00, 0.00, 0.00
28, 18674.17, 52417.99, -187500.02, 58021.26, -187500.02, -187500.02, -187500.02, -187500.02, 0.00, 0.00, 0.00
29, 19226.30, 52815.34, -187500.02, 53745.35, -187500.02, -187500.02, -187500.02, -187500.02, 0.00, 0.00, 0.00
30, 19637.35, 53114.67, -187500.02, 49166.97, -187500.02, -187500.02, -187500.02, -187500.02, 0.00, 0.00, 0.00
31, 19208.33, 52810.78, -187500.02, 51128.34, -187500.02, -187500.02, -187500.02, -187500.02, 0.00, 0.00, 0.00
32, 18639.34, 52400.71, -187500.02, 56204.18, -187500.02, -187500.02, -187500.02, -187500.02, 0.00, 0.00, 0.00
33, 18648.91, 52398.30, -187500.02, 58094.04, -187500.02, -187500.02, -187500.02, -187500.02, -3.54, -0.03, 1.07
34, 19210.03, 52796.29, -187500.02, 53874.72, -187500.02, -187500.02, -187500.02, -187500.02, 0.00, 0.00, 0.00
35, 19630.69, 53101.98, -187500.02, 49225.76, -187500.02, -187500.02, -187500.02, -187500.02, 0.00, 0.00, 0.00
36, 19213.25, 52815.85, -187500.02, 51079.81, -187500.02, -187500.02, -187500.02, -187500.02, 0.00, 0.00, 0.00
37, 18638.72, 52398.32, -187500.02, 56072.84, -187500.02, -187500.02, -187500.02, -187500.02, 0.00, 0.00, 0.00
38, 18639.41, 52389.36, -187500.02, 58162.01, -187500.02, -187500.02, -187500.02, -187500.02, 0.00, 0.00, 0.00
39, 19204.04, 52793.81, -187500.02, 54023.98, -187500.02, -187500.02, -187500.02, -187500.02, 0.00, 0.00, 0.00
40, 19643.18, 53112.84, -187500.02, 49252.67, -187500.02, -187500.02, -187500.02, -187500.02, 0.00, 0.00, 0.00
41, 19221.45, 52818.63, -187500.02, 51022.41, -187500.02, -187500.02, -187500.02, -187500.02, 0.00, 0.00, 0.00
42, 18643.21, 52405.09, -187500.02, 56054.13, -187500.02, -187500.02, -187500.02, -187500.02, 0.00, 0.00, 0.00
43, 18620.08, 52376.28, -187500.02, 58191.47, -187500.02, -187500.02, -187500.02, -187500.02, 0.00, 0.00, 0.00
44, 19175.63, 52765.85, -187500.02, 54079.33, -187500.02, -187500.02, -187500.02, -187500.02, -3.55, -0.03, 1.08
45, 19634.11, 53100.90, -187500.02, 49330.23, -187500.02, -187500.02, -187500.02, -187500.02, 0.00, 0.00, 0.00
46, 19246.79, 52833.40, -187500.02, 50918.34, -187500.02, -187500.02, -187500.02, -187500.02, 0.00, 0.00, 0.00
47, 18667.10, 52410.91, -187500.02, 55913.13, -187500.02, -187500.02, -187500.02, -187500.02, 0.00, 0.00, 0.00
48, 18615.43, 52367.36, -187500.02, 58228.46, -187500.02, -187500.02, -187500.02, -187500.02, 0.00, 0.00, 0.00
49, 19165.99, 52766.50, -187500.02, 54233.36, -187500.02, -187500.02, -187500.02, -187500.02, 0.00, 0.00, 0.00
50, 19636.32, 53115.32, -187500.02, 49367.25, -187500.02, -187500.02, -187500.02, -187500.02, 0.00, 0.00, 0.00
51, 19254.44, 52845.63, -187500.02, 50777.82, -187500.02, -187500.02, -187500.02, -187500.02, 0.00, 0.00, 0.00
52, 18672.22, 52418.77, -187500.02, 55813.15, -187500.02, -187500.02, -187500.02, -187500.02, 0.00, 0.00, 0.00
53, 18603.85, 52360.05, -187500.02, 58316.95, -187500.02, -187500.02, -187500.02, -187500.02, 0.00, 0.00, 0.00
54, 19149.70, 52748.53, -187500.02, 54236.08, -187500.02, -187500.02, -187500.02, -187500.02, -3.55, -0.03, 1.08
55, 19631.83, 53106.27, -187500.02, 49338.30, -187500.02, -187500.02, -187500.02, -187500.02, 0.00, 0.00, 0.00
56, 19260.68, 52848.04, -187500.02, 50685.29, -187500.02, -187500.02, -187500.02, -187500.02, 0.00, 0.00, 0.00
57, 18682.97, 52428.50, -187500.02, 55629.67, -187500.02, -187500.02, -187500.02, -187500.02, 0.00, 0.00, 0.00
58, 18593.95, 52356.30, -187500.02, 58263.48, -187500.02, -187500.02, -187500.02, -187500.02, 0.00, 0.00, 0.00
59, 19132.47, 52738.22, -187500.02, 54364.89, -187500.02, -187500.02, -187500.02, -187500.02, 0.00, 0.00, 0.00
60, 19620.54, 53094.40, -187500.02, 49446.24, -187500.02, -187500.02, -187500.02, -187500.02, 0.00, 0.00, 0.00
61, 19264.88, 52852.11, -187500.02, 50574.84, -187500.02, -187500.02, -187500.02, -187500.02, 0.00, 0.00, 0.00
62, 18684.67, 52433.26, -187500.02, 55474.82, -187500.02, -187500.02, -187500.02, -187500.02, 0.00, 0.00, 0.00
63, 18580.07, 52340.05, -187500.02, 58233.11, -187500.02, -187500.02, -187500.02, -187500.02, 0.00, 0.00, 0.00
64, 19144.02, 52743.70, -187500.02, 54356.02, -187500.02, -187500.02, -187500.02, -187500.02, -3.54, -0.04, 1.07
65, 19647.21, 53119.28, -187500.02, 49395.48, -187500.02, -187500.02, -187500.02, -187500.02, 0.00, 0.00, 0.00
66, 19289.89, 52876.78, -187500.02, 50395.02, -187500.02, -187500.02, -187500.02, -187500.02, 0.00, 0.00, 0.00
67, 18700.16, 52445.50, -187500.02, 55356.04, -187500.02, -187500.02, -187500.02, -187500.02, 0.00, 0.00, 0.00
68, 18568.58, 52328.56, -187500.02, 58256.15, -187500.02, -187500.02, -187500.02, -187500.02, 0.00, 0.00, 0.00
69, 19118.54, 52729.55, -187500.02, 54458.64, -187500.02, -187500.02, -187500.02, -187500.02, 0.00, 0.00, 0.00
70, 19618.48, 53092.12, -187500.02, 49467.94, -187500.02, -187500.02, -187500.02, -187500.02, 0.00, 0.00, 0.00
71, 19289.98, 52860.24, -187500.02, 50400.48, -187500.02, -187500.02, -187500.02, -187500.02, 0.00, 0.00, 0.00
72, 18711.85, 52445.64, -187500.02, 55328.95, -187500.02, -187500.02, -187500.02, -187500.02, 0.00, 0.00, 0.00
73, 18571.86, 52334.73, -187500.02, 58363.46, -187500.02, -187500.02, -187500.02, -187500.02, 0.00, 0.00, 0.00
74, 19121.54, 52728.16, -187500.02, 54596.39, -187500.02, -187500.02, -187500.02, -187500.02, 0.00, 0.00, 0.00
75, 19619.27, 53090.06, -187500.02, 49595.61, -187500.02, -187500.02, -187500.02, -187500.02, -3.55, -0.03, 1.07
76, 19294.32, 52867.24, -187500.02, 50417.96, -187500.02, -187500.02, -187500.02, -187500.02, 0.00, 0.00, 0.00
77, 18723.68, 52459.83, -187500.02, 55303.42, -187500.02, -187500.02, -187500.02, -187500.02, 0.00, 0.00, 0.00
78, 18570.23, 52342.96, -187500.02, 58412.28, -187500.02, -187500.02, -187500.02, -187500.02, 0.00, 0.00, 0.00
79, 19108.48, 52721.39, -187500.02, 54717.54, -187500.02, -187500.02, -187500.02, -187500.02, 0.00, 0.00, 0.00
80, 19616.65, 53089.95, -187500.02, 49688.29, -187500.02, -187500.02, -187500.02, -187500.02, 0.00, 0.00, 0.00
81, 19313.78, 52886.75, -187500.02, 50348.49, -187500.02, -187500.02, -187500.02, -187500.02, 0.00, 0.00, 0.00
82, 18729.29, 52465.49, -187500.02, 55252.53, -187500.02, -187500.02, -187500.02, -187500.02, 0.00, 0.00, 0.00
83, 18550.76, 52321.95, -187500.02, 58579.14, -187500.02, -187500.02, -187500.02, -187500.02, 0.00, 0.00, 0.00
84, 19095.54, 52707.13, -187500.02, 54884.57, -187500.02, -187500.02, -187500.02, -187500.02, 0.00, 0.00, 0.00
85, 19617.48, 53089.62, -187500.02, 49756.01, -187500.02, -187500.02, -187500.02, -187500.02, -3.54, -0.03, 1.07
86, 19324.04, 52887.71, -187500.02, 50228.55, -187500.02, -187500.02, -187500.02, -187500.02, 0.00, 0.00, 0.00
87, 18749.89, 52472.98, -187500.02, 55082.77, -187500.02, -187500.02, -187500.02, -187500.02, 0.00, 0.00, 0.00
88, 18547.48, 52319.51, -187500.02, 58506.85, -187500.02, -187500.02, -187500.02, -187500.02, 0.00, 0.00, 0.00
89, 19093.11, 52712.03, -187500.02, 54968.26, -187500.02, -187500.02, -187500.02, -187500.02, 0.00, 0.00, 0.00
90, 19620.45, 53087.27, -187500.02, 49867.03, -187500.02, -187500.02, -187500.02, -187500.02, 0.00, 0.00, 0.00
91, 19342.46, 52899.94, -187500.02, 50189.39, -187500.02, -187500.02, -187500.02, -187500.02, 0.00, 0.00, 0.00
92, 18759.64, 52480.93, -187500.02, 55100.67, -187500.02, -187500.02, -187500.02, -187500.02, 0.00, 0.00, 0.00
93, 18541.44, 52318.10, -187500.02, 58514.54, -187500.02, -187500.02, -187500.02, -187500.02, 0.00, 0.00, 0.00
94, 19070.17, 52689.63, -187500.02, 54901.67, -187500.02, -187500.02, -187500.02, -187500.02, 0.00, 0.00, 0.00
95, 19612.22, 53082.11, -187500.02, 49844.03, -187500.02, -187500.02, -187500.02, -187500.02, -3.55, -0.02, 1.07
96, 19352.83, 52907.83, -187500.02, 50063.46, -187500.02, -187500.02, -187500.02, -187500.02, 0.00, 0.00, 0.00
97, 18760.98, 52483.97, -187500.02, 54752.86, -187500.02, -187500.02, -187500.02, -187500.02, 0.00, 0.00, 0.00
98, 18534.15, 52312.38, -187500.02, 58063.71, -187500.02, -187500.02, -187500.02, -187500.02, 0.00, 0.00, 0.00
99, 19066.33, 52688.89, -187500.02, 54365.90, -187500.02, -187500.02, -187500.02, -187500.02, 0.00, 0.00, 0.00
100, 19609.14, 53084.36, -187500.02, 49161.09, -187500.02, -187500.02, -187500.02, -187500.02, 0.00, 0.00, 0.00
101, 19371.07, 52927.45, -187500.02, 49272.74, -187500.02, -187500.02, -187500.02, -187500.02, 0.00, 0.00, 0.00
102, 18794.02, 52520.54, -187500.02, 54083.55, -187500.02, -187500.02, -187500.02, -187500.02, 0.00, 0.00, 0.00
103, 18539.18, 52328.41, -187500.02, 57949.20, -187500.02, -187500.02, -187500.02, -187500.02, 0.00, 0.00, 0.00
104, 19060.92, 52690.08, -187500.02, 54835.04, -187500.02, -187500.02, -187500.02, -187500.02, 0.00, 0.00, 0.00
105, 19605.59, 53086.20, -187500.02, 49968.51, -187500.02, -187500.02, -187500.02, -187500.02, 0.00, 0.00, 0.00
106, 19371.76, 52927.86, -187500.02, 49999.46, -187500.02, -187500.02, -187500.02, -187500.02, -3.54, -0.03, 1.07
107, 18786.93, 52507.75, -187500.02, 54776.26, -187500.02, -187500.02, -187500.02, -187500.02, 0.00, 0.00, 0.00
108, 18519.29, 52303.71, -187500.02, 58555.33, -187500.02, -187500.02, -187500.02, -187500.02, 0.00, 0.00, 0.00
109, 19036.20, 52661.13, -187500.02, 55305.10, -187500.02, -187500.02, -187500.02, -187500.02, 0.00, 0.00, 0.00
110, 19581.67, 53060.16, -187500.02, 50053.04, -187500.02, -187500.02, -187500.02, -187500.02, 0.00, 0.00, 0.00
111, 19372.99, 52925.20, -187500.02, 49858.92, -187500.02, -187500.02, -187500.02, -187500.02, 0.00, 0.00, 0.00
112, 18793.53, 52509.19, -187500.02, 54624.67, -187500.02, -187500.02, -187500.02, -187500.02, 0.00, 0.00, 0.00
113, 18513.64, 52300.04, -187500.02, 58518.18, -187500.02, -187500.02, -187500.02, -187500.02, 0.00, 0.00, 0.00
114, 19036.98, 52670.05, -187500.02, 55381.12, -187500.02, -187500.02, -187500.02, -187500.02, 0.00, 0.00, 0.00
115, 19596.73, 53080.90, -187500.02, 50239.90, -187500.02, -187500.02, -187500.02, -187500.02, 0.00, 0.00, 0.00
116, 19403.79, 52949.11, -187500.02, 49828.36, -187500.02, -187500.02, -187500.02, -187500.02, -3.54, -0.03, 1.07
117, 18824.15, 52529.79, -187500.02, 54527.53, -187500.02, -187500.02, -187500.02, -187500.02, 0.00, 0.00, 0.00
118, 18516.27, 52305.83, -187500.02, 58525.45, -187500.02, -187500.02, -187500.02, -187500.02, 0.00, 0.00, 0.00
119, 19025.04, 52660.21, -187500.02, 55488.83, -187500.02, -187500.02, -187500.02, -187500.02, 0.00, 0.00, 0.00
120, 19586.43, 53068.58, -187500.02, 50405.53, -187500.02, -187500.02, -187500.02, -187500.02, 0.00, 0.00, 0.00
121, 19412.62, 52954.84, -187500.02, 49743.14, -187500.02, -187500.02, -187500.02, -187500.02, 0.00, 0.00, 0.00
122, 18837.60, 52543.34, -187500.02, 54412.41, -187500.02, -187500.02, -187500.02, -187500.02, 0.00, 0.00, 0.00
123, 18532.10, 52318.68, -187500.02, 58469.59, -187500.02, -187500.02, -187500.02, -187500.02, 0.00, 0.00, 0.00
124, 19008.50, 52646.98, -187500.02, 55464.02, -187500.02, -187500.02, -187500.02, -187500.02, 0.00, 0.00, 0.00
125, 19555.52, 53040.35, -187500.02, 50372.14, -187500.02, -187500.02, -187500.02, -187500.02, 0.00, 0.00, 0.00
126, 19406.19, 52946.57, -187500.02, 49679.84, -187500.02, -187500.02, -187500.02, -187500.02, -3.54, -0.03, 1.07
127, 18837.29, 52539.32, -187500.02, 54235.52, -187500.02, -187500.02, -187500.02, -187500.02, 0.00, 0.00, 0.00
128, 18503.47, 52292.13, -187500.02, 58419.68, -187500.02, -187500.02, -187500.02, -187500.02, 0.00, 0.00, 0.00
129, 19004.91, 52647.61, -187500.02, 55600.39, -187500.02, -187500.02, -187500.02, -187500.02, 0.00, 0.00, 0.00
130, 19570.03, 53056.16, -187500.02, 50488.27, -187500.02, -187500.02, -187500.02, -187500.02, 0.00, 0.00, 0.00
131, 19430.19, 52966.52, -187500.02, 49591.03, -187500.02, -187500.02, -187500.02, -187500.02, 0.00, 0.00, 0.00
132, 18849.76, 52553.26, -187500.02, 54103.36, -187500.02, -187500.02, -187500.02, -187500.02, 0.00, 0.00, 0.00
133, 18505.37, 52300.69, -187500.02, 58418.03, -187500.02, -187500.02, -187500.02, -187500.02, 0.00, 0.00, 0.00
134, 18998.38, 52647.92, -187500.02, 55736.15, -187500.02, -187500.02, -187500.02, -187500.02, 0.00, 0.00, 0.00
135, 19562.98, 53044.82, -187500.02, 50584.88, -187500.02, -187500.02, -187500.02, -187500.02, 0.00, 0.00, 0.00
136, 19444.65, 52970.73, -187500.02, 49484.01, -187500.02, -187500.02, -187500.02, -187500.02, 0.00, 0.00, 0.00
137, 18869.28, 52564.55, -187500.02, 54056.46, -187500.02, -187500.02, -187500.02, -187500.02, -3.55, -0.03, 1.06
138, 18499.94, 52294.99, -187500.02, 58402.02, -187500.02, -187500.02, -187500.02, -187500.02, 0.00, 0.00, 0.00
139, 18982.11, 52626.20, -187500.02, 55726.25, -187500.02, -187500.02, -187500.02, -187500.02, 0.00, 0.00, 0.00
140, 19558.71, 53041.65, -187500.02, 50547.44, -187500.02, -187500.02, -187500.02, -187500.02, 0.00, 0.00, 0.00
141, 19465.87, 52991.07, -187500.02, 49373.88, -187500.02, -187500.02, -187500.02, -187500.02, 0.00, 0.00, 0.00
142, 18891.78, 52588.45, -187500.02, 53887.73, -187500.02, -187500.02, -187500.02, -187500.02, 0.00, 0.00, 0.00
143, 18514.53, 52312.04, -187500.02, 58364.74, -187500.02, -187500.02, -187500.02, -187500.02, 0.00, 0.00, 0.00
144, 18987.87, 52639.05, -187500.02, 55866.20, -187500.02, -187500.02, -187500.02, -187500.02, 0.00, 0.00, 0.00
145, 19538.53, 53034.81, -187500.02, 50651.60, -187500.02, -187500.02, -187500.02, -187500.02, 0.00, 0.00, 0.00
146, 19440.12, 52968.49, -187500.02, 49231.79, -187500.02, -187500.02, -187500.02, -187500.02, 0.00, 0.00, 0.00
147, 18877.99, 52569.49, -187500.02, 53754.74, -187500.02, -187500.02, -187500.02, -187500.02, -3.54, -0.03, 1.06
148, 18505.66, 52299.46, -187500.02, 58338.92, -187500.02, -187500.02, -187500.02, -187500.02, 0.00, 0.00, 0.00
149, 18972.76, 52621.17, -187500.02, 55861.43, -187500.02, -187500.02, -187500.02, -187500.02, 0.00, 0.00, 0.00
150, 19539.80, 53030.32, -187500.02, 50705.40, -187500.02, -187500.02, -187500.02, -187500.02, 0.00, 0.00, 0.00
151, 19470.18, 52995.54, -187500.02, 49200.59, -187500.02, -187500.02, -187500.02, -187500.02, 0.00, 0.00, 0.00
152, 18886.73, 52583.93, -187500.02, 53589.18, -187500.02, -187500.02, -187500.02, -187500.02, 0.00, 0.00, 0.00
153, 18484.60, 52283.79, -187500.02, 58237.36, -187500.02, -187500.02, -187500.02, -187500.02, 0.00, 0.00, 0.00
154, 18945.07, 52603.42, -187500.02, 55910.16, -187500.02, -187500.02, -187500.02, -187500.02, 0.00, 0.00, 0.00
155, 19526.71, 53025.96, -187500.02, 50713.91, -187500.02, -187500.02, -187500.02, -187500.02, 0.00, 0.00, 0.00
156, 19491.93, 53006.98, -187500.02, 49098.60, -187500.02, -187500.02, -187500.02, -187500.02, 0.00, 0.00, 0.00
157, 18914.11, 52593.50, -187500.02, 53426.57, -187500.02, -187500.02, -187500.02, -187500.02, -3.55, -0.02, 1.07
158, 18485.70, 52280.32, -187500.02, 58095.78, -187500.02, -187500.02, -187500.02, -187500.02, 0.00, 0.00, 0.00
159, 18934.97, 52594.66, -187500.02, 55908.59, -187500.02, -187500.02, -187500.02, -187500.02, 0.00, 0.00, 0.00
160, 19503.80, 53002.33, -187500.02, 50762.89, -187500.02, -187500.02, -187500.02, -187500.02, 0.00, 0.00, 0.00
161, 19479.05, 52993.61, -187500.02, 48972.63, -187500.02, -187500.02, -187500.02, -187500.02, 0.00, 0.00, 0.00
162, 18912.41, 52588.15, -187500.02, 53335.91, -187500.02, -187500.02, -187500.02, -187500.02, 0.00, 0.00, 0.00
163, 18479.15, 52273.62, -187500.02, 58136.68, -187500.02, -187500.02, -187500.02, -187500.02, 0.00, 0.00, 0.00
164, 18921.78, 52584.78, -187500.02, 56056.92, -187500.02, -187500.02, -187500.02, -187500.02, 0.00, 0.00, 0.00
165, 19508.22, 53003.88, -187500.02, 50853.86, -187500.02, -187500.02, -187500.02, -187500.02, 0.00, 0.00, 0.00
166, 19503.08, 53011.86, -187500.02, 48917.93, -187500.02, -187500.02, -187500.02, -187500.02, 0.00, 0.00, 0.00
167, 18919.21, 52591.17, -187500.02, 53244.94, -187500.02, -187500.02, -187500.02, -187500.02, 0.00, 0.00, 0.00
168, 18482.46, 52276.73, -187500.02, 58179.22, -187500.02, -187500.02, -187500.02, -187500.02, -3.54, -0.03, 1.07
169, 18917.46, 52583.73, -187500.02, 56213.38, -187500.02, -187500.02, -187500.02, -187500.02, 0.00, 0.00, 0.00
170, 19501.31, 53003.29, -187500.02, 51038.57, -187500.02, -187500.02, -187500.02, -187500.02, 0.00, 0.00, 0.00
171, 19512.04, 53024.82, -187500.02, 48906.46, -187500.02, -187500.02, -187500.02, -187500.02, 0.00, 0.00, 0.00
172, 18934.70, 52614.13, -187500.02, 53195.32, -187500.02, -187500.02, -187500.02, -187500.02, 0.00, 0.00, 0.00
173, 18475.84, 52270.85, -187500.02, 58148.08, -187500.02, -187500.02, -187500.02, -187500.02, 0.00, 0.00, 0.00
174, 18901.39, 52570.70, -187500.02, 56385.69, -187500.02, -187500.02, -187500.02, -187500.02, 0.00, 0.00, 0.00
175, 19493.63, 52994.15, -187500.02, 51253.35, -187500.02, -187500.02, -187500.02, -187500.02, 0.00, 0.00, 0.00
176, 19533.41, 53035.95, -187500.02, 49017.57, -187500.02, -187500.02, -187500.02, -187500.02, 0.00, 0.00, 0.00
177, 18952.49, 52626.49, -187500.02, 53292.39, -187500.02, -187500.02, -187500.02, -187500.02, 0.00, 0.00, 0.00
178, 18473.96, 52273.53, -187500.02, 58312.52, -187500.02, -187500.02, -187500.02, -187500.02, -3.54, -0.03, 1.07
179, 18885.81, 52556.73, -187500.02, 56534.00, -187500.02, -187500.02, -187500.02, -187500.02, 0.00, 0.00, 0.00
180, 19478.52, 52979.55, -187500.02, 51400.67, -187500.02, -187500.02, -187500.02, -187500.02, 0.00, 0.00, 0.00
181, 19531.33, 53034.63, -187500.02, 49040.04, -187500.02, -187500.02, -187500.02, -187500.02, 0.00, 0.00, 0.00
182, 18955.98, 52629.80, -187500.02, 53105.29, -187500.02, -187500.02, -187500.02, -187500.02, 0.00, 0.00, 0.00
183, 18472.64, 52272.61, -187500.02, 58247.57, -187500.02, -187500.02, -187500.02, -187500.02, 0.00, 0.00, 0.00
184, 18871.11, 52550.36, -187500.02, 56706.73, -187500.02, -187500.02, -187500.02, -187500.02, 0.00, 0.00, 0.00
185, 19476.73, 52988.41, -187500.02, 51475.39, -187500.02, -187500.02, -187500.02, -187500.02, 0.00, 0.00, 0.00
186, 19560.50, 53049.72, -187500.02, 48860.89, -187500.02, -187500.02, -187500.02, -187500.02, 0.00, 0.00, 0.00
187, 18975.94, 52633.28, -187500.02, 53062.93, -187500.02, -187500.02, -187500.02, -187500.02, 0.00, 0.00, 0.00
188, 18466.45, 52271.16, -187500.02, 58295.31, -187500.02, -187500.02, -187500.02, -187500.02, 0.00, 0.00, 0.00
189, 18826.09, 52497.96, -187500.02, 56949.92, -187500.02, -187500.02, -187500.02, -187500.02, -3.54, -0.03, 1.07
190, 19399.73, 52896.72, -187500.02, 51614.29, -187500.02, -187500.02, -187500.02, -187500.02, 0.00, 0.00, 0.00
191, 19458.04, 52927.99, -187500.02, 48812.05, -187500.02, -187500.02, -187500.02, -187500.02, 0.00, 0.00, 0.00
192, 18849.36, 52480.46, -187500.02, 52948.33, -187500.02, -187500.02, -187500.02, -187500.02, 0.00, 0.00, 0.00
193, 18307.62, 52075.11, -187500.02, 58199.11, -187500.02, -187500.02, -187500.02, -187500.02, 0.00, 0.00, 0.00
194, 18642.03, 52288.91, -187500.02, 57025.27, -187500.02, -187500.02, -187500.02, -187500.02, 0.00, 0.00, 0.00
195, 19224.27, 52691.66, -187500.02, 51820.82, -187500.02, -187500.02, -187500.02, -187500.02, 0.00, 0.00, 0.00
196, 19325.59, 52758.77, -187500.02, 48708.25, -187500.02, -187500.02, -187500.02, -187500.02, 0.00, 0.00, 0.00
197, 18696.14, 52295.84, -187500.02, 52725.73, -187500.02, -187500.02, -187500.02, -187500.02, 0.00, 0.00, 0.00
198, 18135.82, 51881.32, -187500.02, 58181.88, -187500.02, -187500.02, -187500.02, -187500.02, 0.00, 0.00, 0.00
199, 18477.85, 52116.58, -187500.02, 57114.98, -187500.02, -187500.02, -187500.02, -187500.02, -3.54, -0.02, 1.07
200, 19095.97, 52559.25, -187500.02, 51767.78, -187500.02, -187500.02, -187500.02, -187500.02, 0.00, 0.00, 0.00
201, 19249.75, 52668.78, -187500.02, 48518.24, -187500.02, -187500.02, -187500.02, -187500.02, 0.00, 0.00, 0.00
202, 18675.11, 52261.26, -187500.02, 52541.26, -187500.02, -187500.02, -187500.02, -187500.02, 0.00, 0.00, 0.00
203, 18116.94, 51864.20, -187500.02, 58149.65, -187500.02, -187500.02, -187500.02, -187500.02, 0.00, 0.00, 0.00
204, 18468.42, 52107.79, -187500.02, 57360.05, -187500.02, -187500.02, -187500.02, -187500.02, 0.00, 0.00, 0.00
205, 19123.39, 52579.95, -187500.02, 52014.43, -187500.02, -187500.02, -187500.02, -187500.02, 0.00, 0.00, 0.00
206, 19316.96, 52734.40, -187500.02, 48598.23, -187500.02, -187500.02, -187500.02, -187500.02, 0.00, 0.00, 0.00
207, 18752.76, 52339.78, -187500.02, 52529.14, -187500.02, -187500.02, -187500.02, -187500.02, 0.00, 0.00, 0.00
208, 18193.40, 51946.44, -187500.02, 58091.46, -187500.02, -187500.02, -187500.02, -187500.02, 0.00, 0.00, 0.00
209, 18525.26, 52172.99, -187500.02, 57462.06, -187500.02, -187500.02, -187500.02, -187500.02, -3.54, -0.03, 1.07
210, 19156.34, 52621.32, -187500.02, 52216.38, -187500.02, -187500.02, -187500.02, -187500.02, 0.00, 0.00, 0.00
211, 19381.51, 52794.71, -187500.02, 48531.40, -187500.02, -187500.02, -187500.02, -187500.02, 0.00, 0.00, 0.00
212, 18844.84, 52422.53, -187500.02, 52248.45, -187500.02, -187500.02, -187500.02, -187500.02, 0.00, 0.00, 0.00
213, 18276.55, 52020.46, -187500.02, 57813.32, -187500.02, -187500.02, -187500.02, -187500.02, 0.00, 0.00, 0.00
214, 18555.08, 52220.85, -187500.02, 57503.39, -187500.02, -187500.02, -187500.02, -187500.02, 0.00, 0.00, 0.00
215, 19151.55, 52652.57, -187500.02, 52631.74, -187500.02, -187500.02, -187500.02, -187500.02, 0.00, 0.00, 0.00
216, 19356.01, 52813.26, -187500.02, 49371.71, -187500.02, -187500.02, -187500.02, -187500.02, 0.00, 0.00, 0.00
217, 18881.08, 52481.65, -187500.02, 52707.69, -187500.02, -187500.02, -187500.02, -187500.02, 0.00, 0.00, 0.00
218, 18443.07, 52164.81, -187500.02, 57258.46, -187500.02, -187500.02, -187500.02, -187500.02, 0.00, 0.00, 0.00
219, 18715.54, 52359.74, -187500.02, 56560.08, -187500.02, -187500.02, -187500.02, -187500.02, 0.00, 0.00, 0.00
220, 19205.69, 52725.86, -187500.02, 52372.55, -187500.02, -187500.02, -187500.02, -187500.02, -3.54, -0.02, 1.07
221, 19374.87, 52858.50, -187500.02, 49615.04, -187500.02, -187500.02, -187500.02, -187500.02, 0.00, 0.00, 0.00
222, 18930.99, 52545.11, -187500.02, 52827.63, -187500.02, -187500.02, -187500.02, -187500.02, 0.00, 0.00, 0.00
223, 18496.04, 52232.74, -187500.02, 57208.68, -187500.02, -187500.02, -187500.02, -187500.02, 0.00, 0.00, 0.00
224, 18754.30, 52411.51, -187500.02, 56716.41, -187500.02, -187500.02, -187500.02, -187500.02, 0.00, 0.00, 0.00
225, 19248.25, 52777.86, -187500.02, 52624.39, -187500.02, -187500.02, -187500.02, -187500.02, 0.00, 0.00, 0.00
226, 19419.04, 52909.39, -187500.02, 49713.68, -187500.02, -187500.02, -187500.02, -187500.02, 0.00, 0.00, 0.00
227, 18968.56, 52587.75, -187500.02, 52698.46, -187500.02, -187500.02, -187500.02, -187500.02, 0.00, 0.00, 0.00
228, 18527.20, 52266.54, -187500.02, 57075.04, -187500.02, -187500.02, -187500.02, -187500.02, 0.00, 0.00, 0.00
229, 18772.54, 52441.97, -187500.02, 56727.07, -187500.02, -187500.02, -187500.02, -187500.02, 0.00, 0.00, 0.00
230, 19266.22, 52799.00, -187500.02, 52614.98, -187500.02, -187500.02, -187500.02, -187500.02, -3.54, -0.02, 1.07
231, 19450.44, 52940.15, -187500.02, 49646.20, -187500.02, -187500.02, -187500.02, -187500.02, 0.00, 0.00, 0.00
232, 18999.21, 52620.32, -187500.02, 52653.85, -187500.02, -187500.02, -187500.02, -187500.02, 0.00, 0.00, 0.00
233, 18556.02, 52296.13, -187500.02, 57068.61, -187500.02, -187500.02, -187500.02, -187500.02, 0.00, 0.00, 0.00
234, 18788.47, 52460.37, -187500.02, 56815.70, -187500.02, -187500.02, -187500.02, -187500.02, 0.00, 0.00, 0.00
235, 19254.89, 52805.01, -187500.02, 52627.98, -187500.02, -187500.02, -187500.02, -187500.02, 0.00, 0.00, 0.00
236, 19449.93, 52953.96, -187500.02, 49542.35, -187500.02, -187500.02, -187500.02, -187500.02, 0.00, 0.00, 0.00
237, 19020.69, 52649.38, -187500.02, 52637.29, -187500.02, -187500.02, -187500.02, -187500.02, 0.00, 0.00, 0.00
238, 18585.56, 52326.19, -187500.02, 57223.77, -187500.02, -187500.02, -187500.02, -187500.02, 0.00, 0.00, 0.00
239, 18799.11, 52475.57, -187500.02, 57031.50, -187500.02, -187500.02, -187500.02, -187500.02, 0.00, 0.00, 0.00
240, 19267.85, 52822.22, -187500.02, 52678.66, -187500.02, -187500.02, -187500.02, -187500.02, -3.55, -0.03, 1.07
241, 19470.40, 52978.59, -187500.02, 49527.95, -187500.02, -187500.02, -187500.02, -187500.02, 0.00, 0.00, 0.00
242, 19032.38, 52664.73, -187500.02, 52519.91, -187500.02, -187500.02, -187500.02, -187500.02, 0.00, 0.00, 0.00
243, 18598.13, 52344.72, -187500.02, 57003.29, -187500.02, -187500.02, -187500.02, -187500.02, 0.00, 0.00, 0.00
244, 18797.30, 52481.25, -187500.02, 56955.53, -187500.02, -187500.02, -187500.02, -187500.02, 0.00, 0.00, 0.00
245, 19246.17, 52812.03, -187500.02, 52885.37, -187500.02, -187500.02, -187500.02, -187500.02, 0.00, 0.00, 0.00
246, 19451.67, 52968.45, -187500.02, 49700.80, -187500.02, -187500.02, -187500.02, -187500.02, 0.00, 0.00, 0.00
247, 19046.93, 52682.19, -187500.02, 52498.46, -187500.02, -187500.02, -187500.02, -187500.02, 0.00, 0.00, 0.00
248, 18638.29, 52384.53, -187500.02, 56805.73, -187500.02, -187500.02, -187500.02, -187500.02, 0.00, 0.00, 0.00
249, 18799.92, 52492.13, -187500.02, 56962.91, -187500.02, -187500.02, -187500.02, -187500.02, 0.00, 0.00, 0.00
250, 19233.65, 52808.92, -187500.02, 53015.90, -187500.02, -187500.02, -187500.02, -187500.02, 0.00, 0.00, 0.00
251, 19453.64, 52974.15, -187500.02, 49733.03, -187500.02, -187500.02, -187500.02, -187500.02, -3.54, -0.03, 1.08
252, 19069.46, 52697.50, -187500.02, 52405.81, -187500.02, -187500.02, -187500.02, -187500.02, 0.00, 0.00, 0.00
253, 18659.08, 52392.66, -187500.02, 56566.47, -187500.02, -187500.02, -187500.02, -187500.02, 0.00, 0.00, 0.00
254, 18802.09, 52491.80, -187500.02, 56817.15, -187500.02, -187500.02, -187500.02, -187500.02, 0.00, 0.00, 0.00
255, 19215.03, 52795.13, -187500.02, 53169.97, -187500.02, -187500.02, -187500.02, -187500.02, 0.00, 0.00, 0.00
0, 19419.29, 52946.81, -187500.02, 50198.60, -187500.02, -187500.02, -187500.02, -187500.02, 0.00, 0.00, 0.00
1, 19068.59, 52693.99, -187500.02, 52499.44, -187500.02, -187500.02, -187500.02, -187500.02, 0.00, 0.00, 0.00
2, 18696.63, 52421.99, -187500.02, 56217.68, -187500.02, -187500.02, -187500.02, -187500.02, 0.00, 0.00, 0.00
3, 18812.48, 52501.30, -187500.02, 56592.60, -187500.02, -187500.02, -187500.02, -187500.02, 0.00, 0.00, 0.00
4, 19186.98, 52774.23, -187500.02, 53210.20, -187500.02, -187500.02, -187500.02, -187500.02, 0.00, 0.00, 0.00
5, 19388.01, 52927.52, -187500.02, 50421.69, -187500.02, -187500.02, -187500.02, -187500.02, -3.54, -0.03, 1.07
6, 19061.57, 52694.62, -187500.02, 52490.54, -187500.02, -187500.02, -187500.02, -187500.02, 0.00, 0.00, 0.00
7, 18711.99, 52432.70, -187500.02, 56025.96, -187500.02, -187500.02, -187500.02, -187500.02, 0.00, 0.00, 0.00
8, 18812.26, 52502.37, -187500.02, 56418.77, -187500.02, -187500.02, -187500.02, -187500.02, 0.00, 0.00, 0.00
9, 19157.52, 52761.49, -187500.02, 53378.36, -187500.02, -187500.02, -187500.02, -187500.02, 0.00, 0.00, 0.00
10, 19356.10, 52915.20, -187500.02, 50774.40, -187500.02, -187500.02, -187500.02, -187500.02, 0.00, 0.00, 0.00
11, 19061.77, 52692.07, -187500.02, 52689.79, -187500.02, -187500.02, -187500.02, -187500.02, 0.00, 0.00, 0.00
12, 18744.48, 52445.35, -187500.02, 55854.93, -187500.02, -187500.02, -187500.02, -187500.02, 0.00, 0.00, 0.00
13, 18834.99, 52500.80, -187500.02, 56302.21, -187500.02, -187500.02, -187500.02, -187500.02, 0.00, 0.00, 0.00
14, 19172.30, 52761.20, -187500.02, 53433.50, -187500.02, -187500.02, -187500.02, -187500.02, 0.00, 0.00, 0.00
15, 19375.83, 52920.70, -187500.02, 50814.90, -187500.02, -187500.02, -187500.02, -187500.02, -3.54, -0.01, 1.09
16, 19129.14, 52746.63, -187500.02, 52652.17, -187500.02, -187500.02, -187500.02, -187500.02, 0.00, 0.00, 0.00
17, 18832.82, 52532.43, -187500.02, 55873.82, -187500.02, -187500.02, -187500.02, -187500.02, 0.00, 0.00, 0.00
18, 18912.21, 52584.58, -187500.02, 56278.54, -187500.02, -187500.02, -187500.02, -187500.02, 0.00, 0.00, 0.00
19, 19205.82, 52799.20, -187500.02, 53447.60, -187500.02, -187500.02, -187500.02, -187500.02, 0.00, 0.00, 0.00
20, 19382.96, 52931.45, -187500.02, 50775.18, -187500.02, -187500.02, -187500.02, -187500.02, 0.00, 0.00, 0.00
21, 19130.43, 52753.16, -187500.02, 52481.00, -187500.02, -187500.02, -187500.02, -187500.02, 0.00, 0.00, 0.00
22, 18844.58, 52548.52, -187500.02, 55709.08, -187500.02, -187500.02, -187500.02, -187500.02, 0.00, 0.00, 0.00
23, 18918.45, 52603.29, -187500.02, 56284.66, -187500.02, -187500.02, -187500.02, -187500.02, 0.00, 0.00, 0.00
24, 19238.64, 52848.26, -187500.02, 53534.48, -187500.02, -187500.02, -187500.02, -187500.02, 0.00, 0.00, 0.00
25, 19447.94, 53007.92, -187500.02, 50930.82, -187500.02, -187500.02, -187500.02, -187500.02, 0.00, 0.00, 0.00
26, 19213.11, 52830.67, -187500.02, 52541.48, -187500.02, -187500.02, -187500.02, -187500.02, -3.54, -0.02, 1.09
27, 18917.13, 52614.95, -187500.02, 55725.27, -187500.02, -187500.02, -187500.02, -187500.02, 0.00, 0.00, 0.00
28, 18976.23, 52657.31, -187500.02, 56395.26, -187500.02, -187500.02, -187500.02, -187500.02, 0.00, 0.00, 0.00
29, 19295.54, 52902.46, -187500.02, 53565.15, -187500.02, -187500.02, -187500.02, -187500.02, 0.00, 0.00, 0.00
30, 19521.86, 53080.50, -187500.02, 50875.34, -187500.02, -187500.02, -187500.02, -187500.02, 0.00, 0.00, 0.00
31, 19289.31, 52910.60, -187500.02, 52498.01, -187500.02, -187500.02, -187500.02, -187500.02, 0.00, 0.00, 0.00
32, 18988.92, 52682.70, -187500.02, 55593.93, -187500.02, -187500.02, -187500.02, -187500.02, 0.00, 0.00, 0.00
33, 19013.35, 52691.91, -187500.02, 56465.55, -187500.02, -187500.02, -187500.02, -187500.02, 0.00, 0.00, 0.00
34, 19324.38, 52927.66, -187500.02, 53660.12, -187500.02, -187500.02, -187500.02, -187500.02, 0.00, 0.00, 0.00
35, 19551.32, 53105.24, -187500.02, 50805.78, -187500.02, -187500.02, -187500.02, -187500.02, 0.00, 0.00, 0.00
36, 19314.12, 52931.34, -187500.02, 52399.48, -187500.02, -187500.02, -187500.02, -187500.02, -3.54, -0.02, 1.08
37, 19018.92, 52713.70, -187500.02, 55631.48, -187500.02, -187500.02, -187500.02, -187500.02, 0.00, 0.00, 0.00
38, 19059.09, 52741.20, -187500.02, 56480.09, -187500.02, -187500.02, -187500.02, -187500.02, 0.00, 0.00, 0.00
39, 19371.07, 52977.07, -187500.02, 53739.58, -187500.02, -187500.02, -187500.02, -187500.02, 0.00, 0.00, 0.00
40, 19589.72, 53145.03, -187500.02, 50879.83, -187500.02, -187500.02, -187500.02, -187500.02, 0.00, 0.00, 0.00
41, 19360.01, 52980.43, -187500.02, 52310.77, -187500.02, -187500.02, -187500.02, -187500.02, 0.00, 0.00, 0.00
42, 19059.87, 52756.33, -187500.02, 55548.11, -187500.02, -187500.02, -187500.02, -187500.02, 0.00, 0.00, 0.00
43, 19076.19, 52766.75, -187500.02, 56458.20, -187500.02, -187500.02, -187500.02, -187500.02, 0.00, 0.00, 0.00
44, 19378.85, 52996.79, -187500.02, 53704.98, -187500.02, -187500.02, -187500.02, -187500.02, 0.00, 0.00, 0.00
45, 19588.04, 53157.09, -187500.02, 50884.28, -187500.02, -187500.02, -187500.02, -187500.02, 0.00, 0.00, 0.00
46, 19355.89, 52982.48, -187500.02, 52217.16, -187500.02, -187500.02, -187500.02, -187500.02, -3.55, -0.02, 1.07
47, 19056.85, 52750.11, -187500.02, 55400.72, -187500.02, -187500.02, -187500.02, -187500.02, 0.00, 0.00, 0.00
48, 19068.79, 52757.87, -187500.02, 56453.98, -187500.02, -187500.02, -187500.02, -187500.02, 0.00, 0.00, 0.00
49, 19358.64, 52966.05, -187500.02, 53774.25, -187500.02, -187500.02, -187500.02, -187500.02, 0.00, 0.00, 0.00
50, 19591.50, 53144.22, -187500.02, 50921.05, -187500.02, -187500.02, -187500.02, -187500.02, 0.00, 0.00, 0.00
51, 19354.33, 52977.07, -187500.02, 52129.54, -187500.02, -187500.02, -187500.02, -187500.02, 0.00, 0.00, 0.00
52, 19050.86, 52747.54, -187500.02, 55191.26, -187500.02, -187500.02, -187500.02, -187500.02, 0.00, 0.00, 0.00
53, 19052.09, 52739.70, -187500.02, 56408.38, -187500.02, -187500.02, -187500.02, -187500.02, 0.00, 0.00, 0.00
54, 19356.14, 52971.98, -187500.02, 53810.23, -187500.02, -187500.02, -187500.02, -187500.02, 0.00, 0.00, 0.00
55, 19584.73, 53146.88, -187500.02, 50957.53, -187500.02, -187500.02, -187500.02, -187500.02, 0.00, 0.00, 0.00
56, 19357.62, 52978.91, -187500.02, 52152.30, -187500.02, -187500.02, -187500.02, -187500.02, 0.00, 0.00, 0.00
57, 19058.17, 52758.12, -187500.02, 55251.12, -187500.02, -187500.02, -187500.02, -187500.02, -3.54, -0.03, 1.06
58, 19047.66, 52750.92, -187500.02, 56566.36, -187500.02, -187500.02, -187500.02, -187500.02, 0.00, 0.00, 0.00
59, 19346.80, 52970.86, -187500.02, 54077.94, -187500.02, -187500.02, -187500.02, -187500.02, 0.00, 0.00, 0.00
60, 19594.32, 53155.24, -187500.02, 51054.55, -187500.02, -187500.02, -187500.02, -187500.02, 0.00, 0.00, 0.00
61, 19381.85, 53008.64, -187500.02, 52152.68, -187500.02, -187500.02, -187500.02, -187500.02, 0.00, 0.00, 0.00
62, 19076.59, 52776.58, -187500.02, 55262.74, -187500.02, -187500.02, -187500.02, -187500.02, 0.00, 0.00, 0.00
63, 19045.03, 52743.75, -187500.02, 56628.05, -187500.02, -187500.02, -187500.02, -187500.02, 0.00, 0.00, 0.00
64, 19331.53, 52951.97, -187500.02, 54131.88, -187500.02, -187500.02, -187500.02, -187500.02, 0.00, 0.00, 0.00
65, 19573.02, 53131.95, -187500.02, 51143.63, -187500.02, -187500.02, -187500.02, -187500.02, 0.00, 0.00, 0.00
66, 19368.84, 52989.43, -187500.02, 52127.08, -187500.02, -187500.02, -187500.02, -187500.02, 0.00, 0.00, 0.00
67, 19067.89, 52764.96, -187500.02, 55264.48, -187500.02, -187500.02, -187500.02, -187500.02, -3.54, -0.04, 1.07
68, 19047.51, 52747.01, -187500.02, 56724.48, -187500.02, -187500.02, -187500.02, -187500.02, 0.00, 0.00, 0.00
69, 19339.69, 52962.64, -187500.02, 54232.73, -187500.02, -187500.02, -187500.02, -187500.02, 0.00, 0.00, 0.00
70, 19589.81, 53146.88, -187500.02, 51188.24, -187500.02, -187500.02, -187500.02, -187500.02, 0.00, 0.00, 0.00
71, 19382.22, 53006.51, -187500.02, 52129.59, -187500.02, -187500.02, -187500.02, -187500.02, 0.00, 0.00, 0.00
72, 19081.44, 52784.11, -187500.02, 55245.35, -187500.02, -187500.02, -187500.02, -187500.02, 0.00, 0.00, 0.00
73, 19038.92, 52744.26, -187500.02, 56786.04, -187500.02, -187500.02, -187500.02, -187500.02, 0.00, 0.00, 0.00
74, 19320.58, 52947.39, -187500.02, 54209.84, -187500.02, -187500.02, -187500.02, -187500.02, 0.00, 0.00, 0.00
75, 19571.81, 53139.88, -187500.02, 51103.42, -187500.02, -187500.02, -187500.02, -187500.02, 0.00, 0.00, 0.00
76, 19381.42, 53004.90, -187500.02, 52002.29, -187500.02, -187500.02, -187500.02, -187500.02, 0.00, 0.00, 0.00
77, 19072.97, 52772.18, -187500.02, 55154.18, -187500.02, -187500.02, -187500.02, -187500.02, -3.55, -0.03, 1.07
78, 19021.80, 52725.48, -187500.02, 56781.16, -187500.02, -187500.02, -187500.02, -187500.02, 0.00, 0.00, 0.00
79, 19313.76, 52939.86, -187500.02, 54289.46, -187500.02, -187500.02, -187500.02, -187500.02, 0.00, 0.00, 0.00
80, 19563.79, 53131.61, -187500.02, 51201.79, -187500.02, -187500.02, -187500.02, -187500.02, 0.00, 0.00, 0.00
81, 19387.63, 53008.77, -187500.02, 51881.04, -187500.02, -187500.02, -187500.02, -187500.02, 0.00, 0.00, 0.00
82, 19088.63, 52789.07, -187500.02, 54880.62, -187500.02, -187500.02, -187500.02, -187500.02, 0.00, 0.00, 0.00
83, 19023.90, 52732.43, -187500.02, 56327.76, -187500.02, -187500.02, -187500.02, -187500.02, 0.00, 0.00, 0.00
84, 19305.69, 52938.03, -187500.02, 53611.26, -187500.02, -187500.02, -187500.02, -187500.02, 0.00, 0.00, 0.00
85, 19559.70, 53128.48, -187500.02, 50419.77, -187500.02, -187500.02, -187500.02, -187500.02, 0.00, 0.00, 0.00
86, 19384.30, 53000.39, -187500.02, 51059.50, -187500.02, -187500.02, -187500.02, -187500.02, 0.00, 0.00, 0.00
87, 19079.63, 52774.07, -187500.02, 54128.64, -187500.02, -187500.02, -187500.02, -187500.02, 0.00, 0.00, 0.00
88, 19012.08, 52725.82, -187500.02, 55951.73, -187500.02, -187500.02, -187500.02, -187500.02, -3.55, -0.03, 1.07
89, 19306.79, 52943.35, -187500.02, 53666.63, -187500.02, -187500.02, -187500.02, -187500.02, 0.00, 0.00, 0.00
90, 19561.13, 53135.14, -187500.02, 51011.77, -187500.02, -187500.02, -187500.02, -187500.02, 0.00, 0.00, 0.00
91, 19398.50, 53010.04, -187500.02, 51874.55, -187500.02, -187500.02, -187500.02, -187500.02, 0.00, 0.00, 0.00
92, 19100.01, 52792.54, -187500.02, 55021.54, -187500.02, -187500.02, -187500.02, -187500.02, 0.00, 0.00, 0.00
93, 19026.90, 52745.29, -187500.02, 56845.11, -187500.02, -187500.02, -187500.02, -187500.02, 0.00, 0.00, 0.00
94, 19314.70, 52958.46, -187500.02, 54340.31, -187500.02, -187500.02, -187500.02, -187500.02, 0.00, 0.00, 0.00
95, 19561.53, 53140.60, -187500.02, 51327.02, -187500.02, -187500.02, -187500.02, -187500.02, 0.00, 0.00, 0.00
96, 19389.62, 53007.25, -187500.02, 51842.12, -187500.02, -187500.02, -187500.02, -187500.02, 0.00, 0.00, 0.00
97, 19105.49, 52791.38, -187500.02, 54823.30, -187500.02, -187500.02, -187500.02, -187500.02, 0.00, 0.00, 0.00
98, 19041.23, 52751.55, -187500.02, 56728.68, -187500.02, -187500.02, -187500.02, -187500.02, -3.54, -0.04, 1.06
99, 19293.56, 52936.95, -187500.02, 54466.89, -187500.02, -187500.02, -187500.02, -187500.02, 0.00, 0.00, 0.00
100, 19516.43, 53096.10, -187500.02, 51481.74, -187500.02, -187500.02, -187500.02, -187500.02, 0.00, 0.00, 0.00
101, 19332.04, 52956.38, -187500.02, 51882.13, -187500.02, -187500.02, -187500.02, -187500.02, 0.00, 0.00, 0.00
102, 19006.04, 52707.00, -187500.02, 54865.35, -187500.02, -187500.02, -187500.02, -187500.02, 0.00, 0.00, 0.00
103, 18876.32, 52598.32, -187500.02, 56760.89, -187500.02, -187500.02, -187500.02, -187500.02, 0.00, 0.00, 0.00
104, 19114.07, 52760.46, -187500.02, 54502.38, -187500.02, -187500.02, -187500.02, -187500.02, 0.00, 0.00, 0.00
105, 19333.65, 52914.16, -187500.02, 51471.08, -187500.02, -187500.02, -187500.02, -187500.02, 0.00, 0.00, 0.00
106, 19148.45, 52768.93, -187500.02, 51713.55, -187500.02, -187500.02, -187500.02, -187500.02, 0.00, 0.00, 0.00
107, 18843.48, 52532.88, -187500.02, 54722.57, -187500.02, -187500.02, -187500.02, -187500.02, 0.00, 0.00, 0.00
108, 18715.76, 52423.63, -187500.02, 56672.09, -187500.02, -187500.02, -187500.02, -187500.02, 0.00, 0.00, 0.00
109, 18948.33, 52583.86, -187500.02, 54474.20, -187500.02, -187500.02, -187500.02, -187500.02, -3.54, -0.03, 1.07
110, 19185.06, 52752.44, -187500.02, 51554.27, -187500.02, -187500.02, -187500.02, -187500.02, 0.00, 0.00, 0.00
111, 19020.87, 52621.86, -187500.02, 51849.27, -187500.02, -187500.02, -187500.02, -187500.02, 0.00, 0.00, 0.00
112, 18705.86, 52372.35, -187500.02, 54694.18, -187500.02, -187500.02, -187500.02, -187500.02, 0.00, 0.00, 0.00
113, 18568.89, 52252.68, -187500.02, 56674.95, -187500.02, -187500.02, -187500.02, -187500.02, 0.00, 0.00, 0.00
114, 18813.84, 52430.13, -187500.02, 54491.38, -187500.02, -187500.02, -187500.02, -187500.02, 0.00, 0.00, 0.00
115, 19056.47, 52602.88, -187500.02, 51569.18, -187500.02, -187500.02, -187500.02, -187500.02, 0.00, 0.00, 0.00
116, 18923.63, 52506.70, -187500.02, 51832.06, -187500.02, -187500.02, -187500.02, -187500.02, 0.00, 0.00, 0.00
117, 18638.18, 52287.39, -187500.02, 54545.47, -187500.02, -187500.02, -187500.02, -187500.02, 0.00, 0.00, 0.00
118, 18506.66, 52179.99, -187500.02, 56583.02, -187500.02, -187500.02, -187500.02, -187500.02, 0.00, 0.00, 0.00
119, 18761.03, 52371.88, -187500.02, 54563.42, -187500.02, -187500.02, -187500.02, -187500.02, -3.55, -0.04, 1.06
120, 19027.62, 52571.61, -187500.02, 51598.87, -187500.02, -187500.02, -187500.02, -187500.02, 0.00, 0.00, 0.00
121, 18928.04, 52499.46, -187500.02, 51705.39, -187500.02, -187500.02, -187500.02, -187500.02, 0.00, 0.00, 0.00
122, 18670.08, 52311.08, -187500.02, 54554.62, -187500.02, -187500.02, -187500.02, -187500.02, 0.00, 0.00, 0.00
123, 18561.42, 52232.67, -187500.02, 56635.63, -187500.02, -187500.02, -187500.02, -187500.02, 0.00, 0.00, 0.00
124, 18830.32, 52436.54, -187500.02, 54580.81, -187500.02, -187500.02, -187500.02, -187500.02, 0.00, 0.00, 0.00
125, 19112.46, 52659.57, -187500.02, 51716.82, -187500.02, -187500.02, -187500.02, -187500.02, 0.00, 0.00, 0.00
126, 19013.85, 52595.75, -187500.02, 51613.42, -187500.02, -187500.02, -187500.02, -187500.02, 0.00, 0.00, 0.00
127, 18754.59, 52408.20, -187500.02, 54201.88, -187500.02, -187500.02, -187500.02, -187500.02, 0.00, 0.00, 0.00
128, 18634.18, 52320.83, -187500.02, 56419.71, -187500.02, -187500.02, -187500.02, -187500.02, 0.00, 0.00, 0.00
129, 18904.97, 52535.07, -187500.02, 54581.66, -187500.02, -187500.02, -187500.02, -187500.02, -3.54, -0.03, 1.06
130, 19181.62, 52754.05, -187500.02, 51683.13, -187500.02, -187500.02, -187500.02, -187500.02, 0.00, 0.00, 0.00
131, 19101.40, 52698.89, -187500.02, 51638.00, -187500.02, -187500.02, -187500.02, -187500.02, 0.00, 0.00, 0.00
132, 18830.23, 52493.65, -187500.02, 54293.91, -187500.02, -187500.02, -187500.02, -187500.02, 0.00, 0.00, 0.00
133, 18701.55, 52401.94, -187500.02, 56351.09, -187500.02, -187500.02, -187500.02, -187500.02, 0.00, 0.00, 0.00
134, 18966.35, 52603.40, -187500.02, 54515.14, -187500.02, -187500.02, -187500.02, -187500.02, 0.00, 0.00, 0.00
135, 19234.97, 52810.58, -187500.02, 51646.57, -187500.02, -187500.02, -187500.02, -187500.02, 0.00, 0.00, 0.00
136, 19161.17, 52763.17, -187500.02, 51427.92, -187500.02, -187500.02, -187500.02, -187500.02, 0.00, 0.00, 0.00
137, 18900.43, 52563.93, -187500.02, 54058.61, -187500.02, -187500.02, -187500.02, -187500.02, 0.00, 0.00, 0.00
138, 18745.69, 52447.79, -187500.02, 56279.77, -187500.02, -187500.02, -187500.02, -187500.02, 0.00, 0.00, 0.00
139, 18984.70, 52630.85, -187500.02, 54648.36, -187500.02, -187500.02, -187500.02, -187500.02, 0.00, 0.00, 0.00
140, 19254.82, 52839.70, -187500.02, 51781.91, -187500.02, -187500.02, -187500.02, -187500.02, -3.54, -0.03, 1.06
141, 19206.47, 52809.08, -187500.02, 51318.17, -187500.02, -187500.02, -187500.02, -187500.02, 0.00, 0.00, 0.00
142, 18928.66, 52598.79, -187500.02, 53903.22, -187500.02, -187500.02, -187500.02, -187500.02, 0.00, 0.00, 0.00
143, 18768.07, 52476.98, -187500.02, 56314.77, -187500.02, -187500.02, -187500.02, -187500.02, 0.00, 0.00, 0.00
144, 19001.37, 52651.86, -187500.02, 54752.70, -187500.02, -187500.02, -187500.02, -187500.02, 0.00, 0.00, 0.00
145, 19266.76, 52857.18, -187500.02, 51850.01, -187500.02, -187500.02, -187500.02, -187500.02, 0.00, 0.00, 0.00
146, 19220.58, 52827.32, -187500.02, 51156.64, -187500.02, -187500.02, -187500.02, -187500.02, 0.00, 0.00, 0.00
147, 18964.05, 52631.61, -187500.02, 53699.59, -187500.02, -187500.02, -187500.02, -187500.02, 0.00, 0.00, 0.00
148, 18787.82, 52489.79, -187500.02, 56149.10, -187500.02, -187500.02, -187500.02, -187500.02, 0.00, 0.00, 0.00
149, 19007.25, 52655.93, -187500.02, 54603.81, -187500.02, -187500.02, -187500.02, -187500.02, 0.00, 0.00, 0.00
150, 19277.53, 52861.89, -187500.02, 51799.18, -187500.02, -187500.02, -187500.02, -187500.02, -3.54, -0.03, 1.05
151, 19240.13, 52841.55, -187500.02, 51275.46, -187500.02, -187500.02, -187500.02, -187500.02, 0.00, 0.00, 0.00
152, 18970.57, 52636.19, -187500.02, 53754.36, -187500.02, -187500.02, -187500.02, -187500.02, 0.00, 0.00, 0.00
153, 18792.50, 52495.91, -187500.02, 56280.57, -187500.02, -187500.02, -187500.02, -187500.02, 0.00, 0.00, 0.00
154, 19021.74, 52676.78, -187500.02, 54812.49, -187500.02, -187500.02, -187500.02, -187500.02, 0.00, 0.00, 0.00
155, 19291.37, 52886.24, -187500.02, 51881.14, -187500.02, -187500.02, -187500.02, -187500.02, 0.00, 0.00, 0.00
156, 19263.20, 52859.48, -187500.02, 51207.98, -187500.02, -187500.02, -187500.02, -187500.02, 0.00, 0.00, 0.00
157, 18990.69, 52654.58, -187500.02, 53717.70, -187500.02, -187500.02, -187500.02, -187500.02, 0.00, 0.00, 0.00
158, 18801.42, 52515.36, -187500.02, 56370.81, -187500.02, -187500.02, -187500.02, -187500.02, 0.00, 0.00, 0.00
159, 19023.70, 52678.10, -187500.02, 54927.36, -187500.02, -187500.02, -187500.02, -187500.02, 0.00, 0.00, 0.00
160, 19297.04, 52887.33, -187500.02, 51956.38, -187500.02, -187500.02, -187500.02, -187500.02, -3.54, -0.04, 1.06
161, 19267.27, 52871.55, -187500.02, 51216.47, -187500.02, -187500.02, -187500.02, -187500.02, 0.00, 0.00, 0.00
162, 19001.60, 52668.26, -187500.02, 53737.04, -187500.02, -187500.02, -187500.02, -187500.02, 0.00, 0.00, 0.00
163, 18809.26, 52519.24, -187500.02, 56378.77, -187500.02, -187500.02, -187500.02, -187500.02, 0.00, 0.00, 0.00
164, 19032.46, 52688.16, -187500.02, 55017.83, -187500.02, -187500.02, -187500.02, -187500.02, 0.00, 0.00, 0.00
165, 19300.57, 52895.58, -187500.02, 52094.49, -187500.02, -187500.02, -187500.02, -187500.02, 0.00, 0.00, 0.00
166, 19275.34, 52874.86, -187500.02, 51207.22, -187500.02, -187500.02, -187500.02, -187500.02, 0.00, 0.00, 0.00
167, 19000.08, 52666.45, -187500.02, 53742.51, -187500.02, -187500.02, -187500.02, -187500.02, 0.00, 0.00, 0.00
168, 18800.10, 52510.39, -187500.02, 56402.46, -187500.02, -187500.02, -187500.02, -187500.02, 0.00, 0.00, 0.00
169, 19026.25, 52689.79, -187500.02, 55071.70, -187500.02, -187500.02, -187500.02, -187500.02, 0.00, 0.00, 0.00
170, 19305.25, 52904.43, -187500.02, 52257.10, -187500.02, -187500.02, -187500.02, -187500.02, 0.00, 0.00, 0.00
171, 19290.16, 52891.63, -187500.02, 51269.04, -187500.02, -187500.02, -187500.02, -187500.02, -3.54, -0.04, 1.06
172, 19012.39, 52679.39, -187500.02, 53680.51, -187500.02, -187500.02, -187500.02, -187500.02, 0.00, 0.00, 0.00
173, 18806.58, 52517.46, -187500.02, 56310.26, -187500.02, -187500.02, -187500.02, -187500.02, 0.00, 0.00, 0.00
174, 19025.71, 52687.71, -187500.02, 55061.80, -187500.02, -187500.02, -187500.02, -187500.02, 0.00, 0.00, 0.00
175, 19287.28, 52892.14, -187500.02, 52239.55, -187500.02, -187500.02, -187500.02, -187500.02, 0.00, 0.00, 0.00
176, 19290.85, 52895.63, -187500.02, 51260.37, -187500.02, -187500.02, -187500.02, -187500.02, 0.00, 0.00, 0.00
177, 19027.82, 52688.00, -187500.02, 53598.65, -187500.02, -187500.02, -187500.02, -187500.02, 0.00, 0.00, 0.00
178, 18815.01, 52526.11, -187500.02, 56218.99, -187500.02, -187500.02, -187500.02, -187500.02, 0.00, 0.00, 0.00
179, 19028.62, 52689.95, -187500.02, 55092.00, -187500.02, -187500.02, -187500.02, -187500.02, 0.00, 0.00, 0.00
180, 19292.08, 52891.60, -187500.02, 52174.58, -187500.02, -187500.02, -187500.02, -187500.02, 0.00, 0.00, 0.00
181, 19296.95, 52893.12, -187500.02, 50987.21, -187500.02, -187500.02, -187500.02, -187500.02, -3.54, -0.04, 1.06
182, 19038.66, 52694.41, -187500.02, 53455.11, -187500.02, -187500.02, -187500.02, -187500.02, 0.00, 0.00, 0.00
183, 18816.17, 52521.57, -187500.02, 56207.80, -187500.02, -187500.02, -187500.02, -187500.02, 0.00, 0.00, 0.00
184, 19024.33, 52683.60, -187500.02, 55121.37, -187500.02, -187500.02, -187500.02, -187500.02, 0.00, 0.00, 0.00
185, 19296.35, 52891.42, -187500.02, 52246.51, -187500.02, -187500.02, -187500.02, -187500.02, 0.00, 0.00, 0.00
186, 19314.28, 52905.95, -187500.02, 50869.04, -187500.02, -187500.02, -187500.02, -187500.02, 0.00, 0.00, 0.00
187, 19047.02, 52712.14, -187500.02, 53305.24, -187500.02, -187500.02, -187500.02, -187500.02, 0.00, 0.00, 0.00
188, 18832.86, 52545.29, -187500.02, 56145.50, -187500.02, -187500.02, -187500.02, -187500.02, 0.00, 0.00, 0.00
189, 19014.47, 52670.81, -187500.02, 55106.46, -187500.02, -187500.02, -187500.02, -187500.02, 0.00, 0.00, 0.00
190, 19281.69, 52877.21, -187500.02, 52238.21, -187500.02, -187500.02, -187500.02, -187500.02, 0.00, 0.00, 0.00
191, 19305.85, 52907.11, -187500.02, 50950.46, -187500.02, -187500.02, -187500.02, -187500.02, -3.54, -0.03, 1.05
192, 19037.96, 52697.05, -187500.02, 53305.58, -187500.02, -187500.02, -187500.02, -187500.02, 0.00, 0.00, 0.00
193, 18814.51, 52522.33, -187500.02, 56106.99, -187500.02, -187500.02, -187500.02, -187500.02, 0.00, 0.00, 0.00
194, 19009.89, 52666.74, -187500.02, 55177.87, -187500.02, -187500.02, -187500.02, -187500.02, 0.00, 0.00, 0.00
195, 19281.11, 52878.97, -187500.02, 52276.73, -187500.02, -187500.02, -187500.02, -187500.02, 0.00, 0.00, 0.00
196, 19324.85, 52918.91, -187500.02, 50747.00, -187500.02, -187500.02, -187500.02, -187500.02, 0.00, 0.00, 0.00
197, 19060.36, 52714.78, -187500.02, 53141.88, -187500.02, -187500.02, -187500.02, -187500.02, 0.00, 0.00, 0.00
198, 18831.97, 52539.67, -187500.02, 56033.74, -187500.02, -187500.02, -187500.02, -187500.02, 0.00, 0.00, 0.00
199, 19018.38, 52684.07, -187500.02, 55197.70, -187500.02, -187500.02, -187500.02, -187500.02, 0.00, 0.00, 0.00
200, 19273.62, 52877.99, -187500.02, 52239.47, -187500.02, -187500.02, -187500.02, -187500.02, 0.00, 0.00, 0.00
201, 19321.96, 52912.86, -187500.02, 50695.18, -187500.02, -187500.02, -187500.02, -187500.02, 0.00, 0.00, 0.00
202, 19046.95, 52693.92, -187500.02, 53058.84, -187500.02, -187500.02, -187500.02, -187500.02, -3.46, -0.11, 1.08
203, 18806.89, 52504.43, -187500.02, 56047.46, -187500.02, -187500.02, -187500.02, -187500.02, 0.00, 0.00, 0.00
204, 18989.21, 52644.57, -187500.02, 55264.53, -187500.02, -187500.02, -187500.02, -187500.02, 0.00, 0.00, 0.00
205, 19272.84, 52871.69, -187500.02, 52282.20, -187500.02, -187500.02, -187500.02, -187500.02, 0.00, 0.00, 0.00
206, 19337.21, 52925.40, -187500.02, 50692.52, -187500.02, -187500.02, -187500.02, -187500.02, 0.00, 0.00, 0.00
207, 19071.07, 52720.59, -187500.02, 53048.91, -187500.02, -187500.02, -187500.02, -187500.02, 0.00, 0.00, 0.00
208, 18830.43, 52532.95, -187500.02, 55913.42, -187500.02, -187500.02, -187500.02, -187500.02, 0.00, 0.00, 0.00
209, 18995.70, 52656.30, -187500.02, 55119.11, -187500.02, -187500.02, -187500.02, -187500.02, 0.00, 0.00, 0.00
210, 19271.00, 52862.28, -187500.02, 52219.69, -187500.02, -187500.02, -187500.02, -187500.02, 0.00, 0.00, 0.00
211, 19341.57, 52921.04, -187500.02, 50527.64, -187500.02, -187500.02, -187500.02, -187500.02, 0.00, 0.00, 0.00
212, 19075.25, 52721.26, -187500.02, 52883.91, -187500.02, -187500.02, -187500.02, -187500.02, -3.50, -0.07, 1.08
213, 18826.85, 52527.45, -187500.02, 55858.57, -187500.02, -187500.02, -187500.02, -187500.02, 0.00, 0.00, 0.00
214, 18984.74, 52648.55, -187500.02, 55229.23, -187500.02, -187500.02, -187500.02, -187500.02, 0.00, 0.00, 0.00
215, 19260.81, 52865.09, -187500.02, 52329.14, -187500.02, -187500.02, -187500.02, -187500.02, 0.00, 0.00, 0.00
216, 19340.43, 52923.59, -187500.02, 50610.79, -187500.02, -187500.02, -187500.02, -187500.02, 0.00, 0.00, 0.00
217, 19078.69, 52722.96, -187500.02, 52939.52, -187500.02, -187500.02, -187500.02, -187500.02, 0.00, 0.00, 0.00
218, 18821.76, 52526.15, -187500.02, 56017.18, -187500.02, -187500.02, -187500.02, -187500.02, 0.00, 0.00, 0.00
219, 18976.81, 52640.26, -187500.02, 55605.26, -187500.02, -187500.02, -187500.02, -187500.02, 0.00, 0.00, 0.00
220, 19253.03, 52852.48, -187500.02, 52526.24, -187500.02, -187500.02, -187500.02, -187500.02, 0.00, 0.00, 0.00
221, 19331.42, 52911.00, -187500.02, 50532.66, -187500.02, -187500.02, -187500.02, -187500.02, 0.00, 0.00, 0.00
222, 19066.95, 52709.48, -187500.02, 52989.64, -187500.02, -187500.02, -187500.02, -187500.02, -3.55, -0.10, 1.05
223, 18812.99, 52515.38, -187500.02, 56069.24, -187500.02, -187500.02, -187500.02, -187500.02, 0.00, 0.00, 0.00
224, 18964.16, 52629.37, -187500.02, 55550.48, -187500.02, -187500.02, -187500.02, -187500.02, 0.00, 0.00, 0.00
225, 19251.65, 52849.94, -187500.02, 52641.84, -187500.02, -187500.02, -187500.02, -187500.02, 0.00, 0.00, 0.00
226, 19336.31, 52916.08, -187500.02, 50767.96, -187500.02, -187500.02, -187500.02, -187500.02, 0.00, 0.00, 0.00
227, 19051.02, 52701.34, -187500.02, 52951.50, -187500.02, -187500.02, -187500.02, -187500.02, 0.00, 0.00, 0.00
228, 18787.45, 52499.48, -187500.02, 56015.44, -187500.02, -187500.02, -187500.02, -187500.02, 0.00, 0.00, 0.00
229, 18928.55, 52600.22, -187500.02, 55690.09, -187500.02, -187500.02, -187500.02, -187500.02, 0.00, 0.00, 0.00
230, 19192.77, 52795.29, -187500.02, 52816.41, -187500.02, -187500.02, -187500.02, -187500.02, 0.00, 0.00, 0.00
231, 19278.11, 52856.38, -187500.02, 50827.38, -187500.02, -187500.02, -187500.02, -187500.02, 0.00, 0.00, 0.00
232, 19020.69, 52663.03, -187500.02, 53001.15, -187500.02, -187500.02, -187500.02, -187500.02, 0.00, 0.00, 0.00
233, 18790.96, 52494.99, -187500.02, 56185.04, -187500.02, -187500.02, -187500.02, -187500.02, -3.50, 0.04, 0.82
234, 18926.63, 52596.58, -187500.02, 55942.52, -187500.02, -187500.02, -187500.02, -187500.02, 0.00, 0.00, 0.00
235, 19195.88, 52791.55, -187500.02, 52883.36, -187500.02, -187500.02, -187500.02, -187500.02, 0.00, 0.00, 0.00
236, 19295.17, 52868.36, -187500.02, 50784.59, -187500.02, -187500.02, -187500.02, -187500.02, 0.00, 0.00, 0.00
237, 19041.76, 52687.04, -187500.02, 53012.59, -187500.02, -187500.02, -187500.02, -187500.02, 0.00, 0.00, 0.00
238, 18789.84, 52505.54, -187500.02, 56194.95, -187500.02, -187500.02, -187500.02, -187500.02, 0.00, 0.00, 0.00
239, 18924.39, 52601.30, -187500.02, 56004.33, -187500.02, -187500.02, -187500.02, -187500.02, 0.00, 0.00, 0.00
240, 19197.67, 52796.47, -187500.02, 53005.73, -187500.02, -187500.02, -187500.02, -187500.02, 0.00, 0.00, 0.00
241, 19310.36, 52888.59, -187500.02, 50756.54, -187500.02, -187500.02, -187500.02, -187500.02, 0.00, 0.00, 0.00
242, 19059.04, 52719.65, -187500.02, 52916.88, -187500.02, -187500.02, -187500.02, -187500.02, 0.00, 0.00, 0.00
243, 18791.69, 52517.34, -187500.02, 56156.72, -187500.02, -187500.02, -187500.02, -187500.02, -3.56, -0.09, 0.96
244, 18911.72, 52593.30, -187500.02, 56108.02, -187500.02, -187500.02, -187500.02, -187500.02, 0.00, 0.00, 0.00
245, 19187.14, 52784.45, -187500.02, 53103.50, -187500.02, -187500.02, -187500.02, -187500.02, 0.00, 0.00, 0.00
246, 19285.40, 52849.45, -187500.02, 50737.14, -187500.02, -187500.02, -187500.02, -187500.02, 0.00, 0.00, 0.00
247, 19028.55, 52674.70, -187500.02, 52842.34, -187500.02, -187500.02, -187500.02, -187500.02, 0.00, 0.00, 0.00
248, 18775.53, 52500.96, -187500.02, 56149.95, -187500.02, -187500.02, -187500.02, -187500.02, 0.00, 0.00, 0.00
249, 18880.85, 52576.96, -187500.02, 56255.16, -187500.02, -187500.02, -187500.02, -187500.02, 0.00, 0.00, 0.00
250, 19156.88, 52764.06, -187500.02, 53143.91, -187500.02, -187500.02, -187500.02, -187500.02, 0.00, 0.00, 0.00
251, 19298.12, 52871.39, -187500.02, 50686.11, -187500.02, -187500.02, -187500.02, -187500.02, 0.00, 0.00, 0.00
252, 19051.55, 52699.13, -187500.02, 52810.22, -187500.02, -187500.02, -187500.02, -187500.02, 0.00, 0.00, 0.00
253, 18779.00, 52496.04, -187500.02, 56243.67, -187500.02, -187500.02, -187500.02, -187500.02, -3.55, -0.08, 0.96
254, 18883.29, 52565.54, -187500.02, 56434.60, -187500.02, -187500.02, -187500.02, -187500.02, 0.00, 0.00, 0.00
255, 19164.94, 52776.20, -187500.02, 53284.77, -187500.02, -187500.02, -187500.02, -187500.02, 0.00, 0.00, 0.00
0, 19313.83, 52883.64, -187500.02, 50801.78, -187500.02, -187500.02, -187500.02, -187500.02, 0.00, 0.00, 0.00
1, 19067.58, 52715.05, -187500.02, 52868.33, -187500.02, -187500.02, -187500.02, -187500.02, 0.00, 0.00, 0.00
2, 18789.63, 52513.45, -187500.02, 56174.85, -187500.02, -187500.02, -187500.02, -187500.02, 0.00, 0.00, 0.00
3, 18885.86, 52575.84, -187500.02, 56344.88, -187500.02, -187500.02, -187500.02, -187500.02, 0.00, 0.00, 0.00
4, 19179.34, 52783.96, -187500.02, 53172.18, -187500.02, -187500.02, -187500.02, -187500.02, 0.00, 0.00, 0.00
5, 19344.70, 52901.28, -187500.02, 50466.28, -187500.02, -187500.02, -187500.02, -187500.02, 0.00, 0.00, 0.00
6, 19086.04, 52721.41, -187500.02, 52469.13, -187500.02, -187500.02, -187500.02, -187500.02, 0.00, 0.00, 0.00
7, 18801.71, 52518.17, -187500.02, 55978.69, -187500.02, -187500.02, -187500.02, -187500.02, 0.00, 0.00, 0.00
8, 18888.47, 52572.96, -187500.02, 56395.77, -187500.02, -187500.02, -187500.02, -187500.02, -3.55, -0.05, 1.01
9, 19183.23, 52784.00, -187500.02, 53295.59, -187500.02, -187500.02, -187500.02, -187500.02, 0.00, 0.00, 0.00
10, 19348.27, 52897.55, -187500.02, 50481.17, -187500.02, -187500.02, -187500.02, -187500.02, 0.00, 0.00, 0.00
11, 19091.81, 52722.69, -187500.02, 52474.27, -187500.02, -187500.02, -187500.02, -187500.02, 0.00, 0.00, 0.00
12, 18805.93, 52520.27, -187500.02, 56018.70, -187500.02, -187500.02, -187500.02, -187500.02, 0.00, 0.00, 0.00
13, 18884.63, 52573.71, -187500.02, 56472.20, -187500.02, -187500.02, -187500.02, -187500.02, 0.00, 0.00, 0.00
14, 19172.95, 52777.34, -187500.02, 53346.13, -187500.02, -187500.02, -187500.02, -187500.02, 0.00, 0.00, 0.00
15, 19348.47, 52898.55, -187500.02, 50457.18, -187500.02, -187500.02, -187500.02, -187500.02, 0.00, 0.00, 0.00
16, 19098.92, 52730.98, -187500.02, 52408.25, -187500.02, -187500.02, -187500.02, -187500.02, 0.00, 0.00, 0.00
17, 18821.49, 52541.93, -187500.02, 55970.18, -187500.02, -187500.02, -187500.02, -187500.02, 0.00, 0.00, 0.00
18, 18882.71, 52581.32, -187500.02, 56559.72, -187500.02, -187500.02, -187500.02, -187500.02, -3.62, -0.10, 0.93
19, 19164.52, 52773.18, -187500.02, 53443.51, -187500.02, -187500.02, -187500.02, -187500.02, 0.00, 0.00, 0.00
20, 19350.96, 52900.48, -187500.02, 50487.63, -187500.02, -187500.02, -187500.02, -187500.02, 0.00, 0.00, 0.00
21, 19113.15, 52741.53, -187500.02, 52313.88, -187500.02, -187500.02, -187500.02, -187500.02, 0.00, 0.00, 0.00
22, 18836.46, 52551.14, -187500.02, 55839.77, -187500.02, -187500.02, -187500.02, -187500.02, 0.00, 0.00, 0.00
23, 18885.68, 52578.70, -187500.02, 56622.27, -187500.02, -187500.02, -187500.02, -187500.02, 0.00, 0.00, 0.00
24, 19148.27, 52759.91, -187500.02, 53484.91, -187500.02, -187500.02, -187500.02, -187500.02, 0.00, 0.00, 0.00
25, 19314.39, 52870.68, -187500.02, 50398.36, -187500.02, -187500.02, -187500.02, -187500.02, 0.00, 0.00, 0.00
26, 19082.62, 52702.42, -187500.02, 52207.64, -187500.02, -187500.02, -187500.02, -187500.02, 0.00, 0.00, 0.00
27, 18823.74, 52520.54, -187500.02, 55831.04, -187500.02, -187500.02, -187500.02, -187500.02, 0.00, 0.00, 0.00
28, 18877.52, 52561.20, -187500.02, 56627.47, -187500.02, -187500.02, -187500.02, -187500.02, 0.00, 0.00, 0.00
29, 19145.61, 52751.95, -187500.02, 53464.14, -187500.02, -187500.02, -187500.02, -187500.02, -3.64, -0.11, 0.92
30, 19333.56, 52893.12, -187500.02, 50443.71, -187500.02, -187500.02, -187500.02, -187500.02, 0.00, 0.00, 0.00
31, 19122.95, 52746.09, -187500.02, 52296.22, -187500.02, -187500.02, -187500.02, -187500.02, 0.00, 0.00, 0.00
32, 18859.26, 52565.42, -187500.02, 55829.52, -187500.02, -187500.02, -187500.02, -187500.02, 0.00, 0.00, 0.00
33, 18880.65, 52571.86, -187500.02, 56584.51, -187500.02, -187500.02, -187500.02, -187500.02, 0.00, 0.00, 0.00
34, 19126.07, 52737.02, -187500.02, 53463.96, -187500.02, -187500.02, -187500.02, -187500.02, 0.00, 0.00, 0.00
35, 19300.60, 52863.95, -187500.02, 50491.88, -187500.02, -187500.02, -187500.02, -187500.02, 0.00, 0.00, 0.00
36, 19103.99, 52726.82, -187500.02, 52159.38, -187500.02, -187500.02, -187500.02, -187500.02, 0.00, 0.00, 0.00
37, 18868.63, 52565.91, -187500.02, 55618.49, -187500.02, -187500.02, -187500.02, -187500.02, 0.00, 0.00, 0.00
38, 18886.37, 52578.70, -187500.02, 56602.21, -187500.02, -187500.02, -187500.02, -187500.02, 0.00, 0.00, 0.00
39, 19130.05, 52751.37, -187500.02, 53675.14, -187500.02, -187500.02, -187500.02, -187500.02, -3.46, -0.05, 1.01
40, 19295.21, 52864.20, -187500.02, 50761.93, -187500.02, -187500.02, -187500.02, -187500.02, 0.00, 0.00, 0.00
41, 19104.50, 52728.68, -187500.02, 52365.26, -187500.02, -187500.02, -187500.02, -187500.02, 0.00, 0.00, 0.00
42, 18870.41, 52566.94, -187500.02, 55726.88, -187500.02, -187500.02, -187500.02, -187500.02, 0.00, 0.00, 0.00
43, 18893.66, 52580.06, -187500.02, 56659.08, -187500.02, -187500.02, -187500.02, -187500.02, 0.00, 0.00, 0.00
44, 19128.64, 52747.57, -187500.02, 53717.03, -187500.02, -187500.02, -187500.02, -187500.02, 0.00, 0.00, 0.00
45, 19304.78, 52876.09, -187500.02, 50738.57, -187500.02, -187500.02, -187500.02, -187500.02, 0.00, 0.00, 0.00
46, 19117.36, 52740.01, -187500.02, 52312.78, -187500.02, -187500.02, -187500.02, -187500.02, 0.00, 0.00, 0.00
47, 18878.93, 52570.92, -187500.02, 55636.62, -187500.02, -187500.02, -187500.02, -187500.02, 0.00, 0.00, 0.00
