%OpenBCI Raw EEG Data
%
%Sample Rate = 250.0 Hz
%First Column = SampleIndex
%Other Columns = EEG data in microvolts followed by Accel Data (in G) interleaved with Aux Data
0, 19203.14, 52784.16, -187500.02, 53511.50, -187500.02, -187500.02, -187500.02, -187500.02, -3.57, -0.03, 1.08
1, 19084.14, 52563.46, -187500.02, 53514.68, -187500.02, -187500.02, -187500.02, -187500.02, 0.00, 0.00, 0.00
2, 19039.19, 52449.21, -187500.02, 53422.05, -187500.02, -187500.02, -187500.02, -187500.02, 0.00, 0.00, 0.00
3, 19143.15, 52643.05, -187500.02, 53411.41, -187500.02, -187500.02, -187500.02, -187500.02, 0.00, 0.00, 0.00
4, 19233.92, 52841.18, -187500.02, 53556.07, -187500.02, -187500.02, -187500.02, -187500.02, 0.00, 0.00, 0.00
5, 19202.07, 52789.86, -187500.02, 53499.10, -187500.02, -187500.02, -187500.02, -187500.02, 0.00, 0.00, 0.00
6, 19093.73, 52582.39, -187500.02, 53579.66, -187500.02, -187500.02, -187500.02, -187500.02, 0.00, 0.00, 0.00
7, 19040.65, 52451.94, -187500.02, 53531.20, -187500.02, -187500.02, -187500.02, -187500.02, -3.57, -0.03, 1.07
8, 19144.18, 52639.16, -187500.02, 53420.36, -187500.02, -187500.02, -187500.02, -187500.02, 0.00, 0.00, 0.00
9, 19243.58, 52841.49, -187500.02, 53387.54, -187500.02, -187500.02, -187500.02, -187500.02, 0.00, 0.00, 0.00
10, 19207.46, 52795.63, -187500.02, 53507.04, -187500.02, -187500.02, -187500.02, -187500.02, 0.00, 0.00, 0.00
11, 19083.40, 52570.83, -187500.02, 53537.81, -187500.02, -187500.02, -187500.02, -187500.02, 0.00, 0.00, 0.00
12, 19033.63, 52443.29, -187500.02, 53508.11, -187500.02, -187500.02, -187500.02, -187500.02, 0.00, 0.00, 0.00
13, 19152.16, 52648.30, -187500.02, 53433.81, -187500.02, -187500.02, -187500.02, -187500.02, 0.00, 0.00, 0.00
14, 19252.94, 52857.56, -187500.02, 53384.61, -187500.02, -187500.02, -187500.02, -187500.02, 0.00, 0.00, 0.00
15, 19190.71, 52778.64, -187500.02, 53442.19, -187500.02, -187500.02, -187500.02, -187500.02, 0.00, 0.00, 0.00
16, 19075.49, 52564.06, -187500.02, 53488.46, -187500.02, -187500.02, -187500.02, -187500.02, 0.00, 0.00, 0.00
17, 19026.32, 52442.73, -187500.02, 53530.77, -187500.02, -187500.02, -187500.02, -187500.02, -3.57, -0.03, 1.06
18, 19136.13, 52634.71, -187500.02, 53363.69, -187500.02, -187500.02, -187500.02, -187500.02, 0.00, 0.00, 0.00
19, 19242.13, 52846.43, -187500.02, 53270.11, -187500.02, -187500.02, -187500.02, -187500.02, 0.00, 0.00, 0.00
20, 19200.19, 52789.72, -187500.02, 53339.62, -187500.02, -187500.02, -187500.02, -187500.02, 0.00, 0.00, 0.00
21, 19094.00, 52576.17, -187500.02, 53683.50, -187500.02, -187500.02, -187500.02, -187500.02, 0.00, 0.00, 0.00
22, 19042.21, 52450.73, -187500.02, 53564.32, -187500.02, -187500.02, -187500.02, -187500.02, 0.00, 0.00, 0.00
23, 19143.66, 52644.04, -187500.02, 53405.56, -187500.02, -187500.02, -187500.02, -187500.02, 0.00, 0.00, 0.00
24, 19249.08, 52852.31, -187500.02, 53370.69, -187500.02, -187500.02, -187500.02, -187500.02, 0.00, 0.00, 0.00
25, 19210.45, 52806.98, -187500.02, 53358.82, -187500.02, -187500.02, -187500.02, -187500.02, 0.00, 0.00, 0.00
26, 19086.33, 52582.93, -187500.02, 53449.12, -187500.02, -187500.02, -187500.02, -187500.02, 0.00, 0.00, 0.00
27, 19023.48, 52435.58, -187500.02, 53421.47, -187500.02, -187500.02, -187500.02, -187500.02, 0.00, 0.00, 0.00
28, 19145.47, 52640.66, -187500.02, 53365.26, -187500.02, -187500.02, -187500.02, -187500.02, -3.57, -0.03, 1.06
29, 19244.40, 52847.12, -187500.02, 53288.34, -187500.02, -187500.02, -187500.02, -187500.02, 0.00, 0.00, 0.00
30, 19212.75, 52812.99, -187500.02, 53279.34, -187500.02, -187500.02, -187500.02, -187500.02, 0.00, 0.00, 0.00
31, 19087.58, 52578.86, -187500.02, 53326.93, -187500.02, -187500.02, -187500.02, -187500.02, 0.00, 0.00, 0.00
32, 19023.86, 52433.52, -187500.02, 53393.64, -187500.02, -187500.02, -187500.02, -187500.02, 0.00, 0.00, 0.00
33, 19130.52, 52623.89, -187500.02, 53255.11, -187500.02, -187500.02, -187500.02, -187500.02, 0.00, 0.00, 0.00
34, 19229.18, 52828.93, -187500.02, 53274.06, -187500.02, -187500.02, -187500.02, -187500.02, 0.00, 0.00, 0.00
35, 19214.41, 52812.84, -187500.02, 53315.21, -187500.02, -187500.02, -187500.02, -187500.02, 0.00, 0.00, 0.00
36, 19094.09, 52593.30, -187500.02, 53377.71, -187500.02, -187500.02, -187500.02, -187500.02, 0.00, 0.00, 0.00
37, 19019.41, 52429.90, -187500.02, 53351.06, -187500.02, -187500.02, -187500.02, -187500.02, 0.00, 0.00, 0.00
38, 19124.96, 52615.63, -187500.02, 53215.07, -187500.02, -187500.02, -187500.02, -187500.02, -3.57, -0.03, 1.06
39, 19237.56, 52837.40, -187500.02, 53108.41, -187500.02, -187500.02, -187500.02, -187500.02, 0.00, 0.00, 0.00
40, 19224.15, 52827.30, -187500.02, 53210.36, -187500.02, -187500.02, -187500.02, -187500.02, 0.00, 0.00, 0.00
41, 19113.56, 52613.32, -187500.02, 53340.18, -187500.02, -187500.02, -187500.02, -187500.02, 0.00, 0.00, 0.00
42, 19042.52, 52454.76, -187500.02, 53215.21, -187500.02, -187500.02, -187500.02, -187500.02, 0.00, 0.00, 0.00
43, 19124.62, 52617.05, -187500.02, 53152.27, -187500.02, -187500.02, -187500.02, -187500.02, 0.00, 0.00, 0.00
44, 19220.35, 52820.66, -187500.02, 53163.49, -187500.02, -187500.02, -187500.02, -187500.02, 0.00, 0.00, 0.00
45, 19215.66, 52822.76, -187500.02, 53201.17, -187500.02, -187500.02, -187500.02, -187500.02, 0.00, 0.00, 0.00
46, 19109.20, 52613.50, -187500.02, 53229.76, -187500.02, -187500.02, -187500.02, -187500.02, 0.00, 0.00, 0.00
47, 19010.61, 52422.33, -187500.02, 53183.63, -187500.02, -187500.02, -187500.02, -187500.02, 0.00, 0.00, 0.00
48, 19106.00, 52595.93, -187500.02, 53175.22, -187500.02, -187500.02, -187500.02, -187500.02, -3.56, -0.03, 1.06
49, 19224.53, 52820.05, -187500.02, 53080.77, -187500.02, -187500.02, -187500.02, -187500.02, 0.00, 0.00, 0.00
50, 19213.51, 52814.55, -187500.02, 53149.96, -187500.02, -187500.02, -187500.02, -187500.02, 0.00, 0.00, 0.00
51, 19092.93, 52591.20, -187500.02, 53420.06, -187500.02, -187500.02, -187500.02, -187500.02, 0.00, 0.00, 0.00
52, 19015.66, 52420.96, -187500.02, 53408.15, -187500.02, -187500.02, -187500.02, -187500.02, 0.00, 0.00, 0.00
53, 19121.04, 52606.10, -187500.02, 53294.65, -187500.02, -187500.02, -187500.02, -187500.02, 0.00, 0.00, 0.00
54, 19225.72, 52820.84, -187500.02, 53156.13, -187500.02, -187500.02, -187500.02, -187500.02, 0.00, 0.00, 0.00
55, 19218.95, 52827.39, -187500.02, 53255.96, -187500.02, -187500.02, -187500.02, -187500.02, 0.00, 0.00, 0.00
56, 19112.66, 52617.99, -187500.02, 53467.85, -187500.02, -187500.02, -187500.02, -187500.02, 0.00, 0.00, 0.00
57, 19031.10, 52442.31, -187500.02, 53449.37, -187500.02, -187500.02, -187500.02, -187500.02, 0.00, 0.00, 0.00
58, 19123.57, 52606.71, -187500.02, 53341.74, -187500.02, -187500.02, -187500.02, -187500.02, 0.00, 0.00, 0.00
59, 19231.33, 52816.93, -187500.02, 53348.79, -187500.02, -187500.02, -187500.02, -187500.02, -3.57, -0.03, 1.07
60, 19221.90, 52823.65, -187500.02, 53409.45, -187500.02, -187500.02, -187500.02, -187500.02, 0.00, 0.00, 0.00
61, 19104.62, 52609.05, -187500.02, 53517.00, -187500.02, -187500.02, -187500.02, -187500.02, 0.00, 0.00, 0.00
62, 19025.76, 52435.98, -187500.02, 53470.27, -187500.02, -187500.02, -187500.02, -187500.02, 0.00, 0.00, 0.00
63, 19123.39, 52605.39, -187500.02, 53329.72, -187500.02, -187500.02, -187500.02, -187500.02, 0.00, 0.00, 0.00
64, 19235.24, 52823.61, -187500.02, 53204.91, -187500.02, -187500.02, -187500.02, -187500.02, 0.00, 0.00, 0.00
65, 19232.29, 52840.95, -187500.02, 53509.58, -187500.02, -187500.02, -187500.02, -187500.02, 0.00, 0.00, 0.00
66, 19119.10, 52625.37, -187500.02, 53754.56, -187500.02, -187500.02, -187500.02, -187500.02, 0.00, 0.00, 0.00
67, 19030.12, 52440.66, -187500.02, 53598.95, -187500.02, -187500.02, -187500.02, -187500.02, 0.00, 0.00, 0.00
68, 19130.70, 52610.48, -187500.02, 53457.86, -187500.02, -187500.02, -187500.02, -187500.02, 0.00, 0.00, 0.00
69, 19236.42, 52825.08, -187500.02, 53386.38, -187500.02, -187500.02, -187500.02, -187500.02, -3.57, -0.03, 1.06
70, 19237.79, 52849.89, -187500.02, 53358.98, -187500.02, -187500.02, -187500.02, -187500.02, 0.00, 0.00, 0.00
71, 19117.89, 52623.92, -187500.02, 53540.34, -187500.02, -187500.02, -187500.02, -187500.02, 0.00, 0.00, 0.00
72, 19009.49, 52415.98, -187500.02, 53603.64, -187500.02, -187500.02, -187500.02, -187500.02, 0.00, 0.00, 0.00
73, 19115.84, 52592.80, -187500.02, 53487.63, -187500.02, -187500.02, -187500.02, -187500.02, 0.00, 0.00, 0.00
74, 19231.57, 52816.66, -187500.02, 53402.25, -187500.02, -187500.02, -187500.02, -187500.02, 0.00, 0.00, 0.00
75, 19224.60, 52830.25, -187500.02, 53429.79, -187500.02, -187500.02, -187500.02, -187500.02, 0.00, 0.00, 0.00
76, 19114.16, 52617.66, -187500.02, 53540.43, -187500.02, -187500.02, -187500.02, -187500.02, 0.00, 0.00, 0.00
77, 19023.41, 52429.73, -187500.02, 53459.54, -187500.02, -187500.02, -187500.02, -187500.02, 0.00, 0.00, 0.00
78, 19115.84, 52588.87, -187500.02, 53390.40, -187500.02, -187500.02, -187500.02, -187500.02, 0.00, 0.00, 0.00
79, 19235.73, 52818.22, -187500.02, 53475.56, -187500.02, -187500.02, -187500.02, -187500.02, -3.56, -0.03, 1.07
80, 19243.24, 52855.64, -187500.02, 53444.90, -187500.02, -187500.02, -187500.02, -187500.02, 0.00, 0.00, 0.00
81, 19104.84, 52615.60, -187500.02, 53526.52, -187500.02, -187500.02, -187500.02, -187500.02, 0.00, 0.00, 0.00
82, 19005.33, 52423.40, -187500.02, 53481.15, -187500.02, -187500.02, -187500.02, -187500.02, 0.00, 0.00, 0.00
83, 19113.27, 52594.05, -187500.02, 53461.77, -187500.02, -187500.02, -187500.02, -187500.02, 0.00, 0.00, 0.00
84, 19223.19, 52808.95, -187500.02, 53495.23, -187500.02, -187500.02, -187500.02, -187500.02, 0.00, 0.00, 0.00
85, 19229.45, 52848.15, -187500.02, 53382.13, -187500.02, -187500.02, -187500.02, -187500.02, 0.00, 0.00, 0.00
86, 19091.70, 52603.38, -187500.02, 53387.79, -187500.02, -187500.02, -187500.02, -187500.02, 0.00, 0.00, 0.00
87, 19005.17, 52412.40, -187500.02, 53471.27, -187500.02, -187500.02, -187500.02, -187500.02, 0.00, 0.00, 0.00
88, 19099.43, 52569.65, -187500.02, 53546.48, -187500.02, -187500.02, -187500.02, -187500.02, 0.00, 0.00, 0.00
89, 19211.75, 52790.77, -187500.02, 53479.16, -187500.02, -187500.02, -187500.02, -187500.02, 0.00, 0.00, 0.00
90, 19230.14, 52843.39, -187500.02, 53382.54, -187500.02, -187500.02, -187500.02, -187500.02, -3.56, -0.03, 1.07
91, 19100.44, 52612.99, -187500.02, 53380.05, -187500.02, -187500.02, -187500.02, -187500.02, 0.00, 0.00, 0.00
92, 19016.66, 52426.42, -187500.02, 53523.11, -187500.02, -187500.02, -187500.02, -187500.02, 0.00, 0.00, 0.00
93, 19091.16, 52554.83, -187500.02, 53582.27, -187500.02, -187500.02, -187500.02, -187500.02, 0.00, 0.00, 0.00
94, 19228.51, 52804.05, -187500.02, 53447.51, -187500.02, -187500.02, -187500.02, -187500.02, 0.00, 0.00, 0.00
95, 19265.15, 52888.94, -187500.02, 53464.16, -187500.02, -187500.02, -187500.02, -187500.02, 0.00, 0.00, 0.00
96, 19127.08, 52654.14, -187500.02, 53542.02, -187500.02, -187500.02, -187500.02, -187500.02, 0.00, 0.00, 0.00
97, 19007.86, 52423.13, -187500.02, 53502.16, -187500.02, -187500.02, -187500.02, -187500.02, 0.00, 0.00, 0.00
98, 19073.21, 52546.56, -187500.02, 53443.67, -187500.02, -187500.02, -187500.02, -187500.02, 0.00, 0.00, 0.00
99, 19185.89, 52769.58, -187500.02, 53395.86, -187500.02, -187500.02, -187500.02, -187500.02, 0.00, 0.00, 0.00
100, 19216.53, 52847.37, -187500.02, 53407.50, -187500.02, -187500.02, -187500.02, -187500.02, -3.57, -0.02, 1.07
101, 19097.46, 52630.85, -187500.02, 53539.67, -187500.02, -187500.02, -187500.02, -187500.02, 0.00, 0.00, 0.00
102, 19009.55, 52441.17, -187500.02, 53568.84, -187500.02, -187500.02, -187500.02, -187500.02, 0.00, 0.00, 0.00
103, 19084.86, 52567.48, -187500.02, 53457.91, -187500.02, -187500.02, -187500.02, -187500.02, 0.00, 0.00, 0.00
104, 19207.28, 52798.98, -187500.02, 53371.49, -187500.02, -187500.02, -187500.02, -187500.02, 0.00, 0.00, 0.00
105, 19238.17, 52872.11, -187500.02, 53488.15, -187500.02, -187500.02, -187500.02, -187500.02, 0.00, 0.00, 0.00
106, 19121.74, 52662.54, -187500.02, 53607.28, -187500.02, -187500.02, -187500.02, -187500.02, 0.00, 0.00, 0.00
107, 19036.06, 52475.21, -187500.02, 53557.41, -187500.02, -187500.02, -187500.02, -187500.02, 0.00, 0.00, 0.00
108, 19111.48, 52592.67, -187500.02, 53492.93, -187500.02, -187500.02, -187500.02, -187500.02, 0.00, 0.00, 0.00
109, 19222.34, 52815.07, -187500.02, 53414.74, -187500.02, -187500.02, -187500.02, -187500.02, 0.00, 0.00, 0.00
110, 19248.38, 52894.29, -187500.02, 53363.87, -187500.02, -187500.02, -187500.02, -187500.02, -3.57, -0.03, 1.07
111, 19129.72, 52670.59, -187500.02, 53453.48, -187500.02, -187500.02, -187500.02, -187500.02, 0.00, 0.00, 0.00
112, 19038.03, 52472.48, -187500.02, 53590.72, -187500.02, -187500.02, -187500.02, -187500.02, 0.00, 0.00, 0.00
113, 19101.00, 52582.90, -187500.02, 53552.99, -187500.02, -187500.02, -187500.02, -187500.02, 0.00, 0.00, 0.00
114, 19210.54, 52796.43, -187500.02, 53472.99, -187500.02, -187500.02, -187500.02, -187500.02, 0.00, 0.00, 0.00
115, 19241.28, 52879.49, -187500.02, 53520.54, -187500.02, -187500.02, -187500.02, -187500.02, 0.00, 0.00, 0.00
116, 19124.35, 52665.71, -187500.02, 53605.09, -187500.02, -187500.02, -187500.02, -187500.02, 0.00, 0.00, 0.00
117, 19040.87, 52479.01, -187500.02, 53540.11, -187500.02, -187500.02, -187500.02, -187500.02, 0.00, 0.00, 0.00
118, 19100.64, 52575.23, -187500.02, 53428.63, -187500.02, -187500.02, -187500.02, -187500.02, 0.00, 0.00, 0.00
119, 19205.89, 52790.46, -187500.02, 53454.48, -187500.02, -187500.02, -187500.02, -187500.02, 0.00, 0.00, 0.00
120, 19238.32, 52885.75, -187500.02, 53571.12, -187500.02, -187500.02, -187500.02, -187500.02, 0.00, 0.00, 0.00
121, 19129.43, 52676.38, -187500.02, 53614.08, -187500.02, -187500.02, -187500.02, -187500.02, -3.57, -0.03, 1.06
122, 19037.58, 52473.69, -187500.02, 53558.00, -187500.02, -187500.02, -187500.02, -187500.02, 0.00, 0.00, 0.00
123, 19111.10, 52583.84, -187500.02, 53472.66, -187500.02, -187500.02, -187500.02, -187500.02, 0.00, 0.00, 0.00
124, 19218.21, 52799.47, -187500.02, 53456.81, -187500.02, -187500.02, -187500.02, -187500.02, 0.00, 0.00, 0.00
125, 19248.83, 52888.14, -187500.02, 53489.60, -187500.02, -187500.02, -187500.02, -187500.02, 0.00, 0.00, 0.00
126, 19135.80, 52680.80, -187500.02, 53554.80, -187500.02, -187500.02, -187500.02, -187500.02, 0.00, 0.00, 0.00
127, 19028.22, 52465.89, -187500.02, 53594.32, -187500.02, -187500.02, -187500.02, -187500.02, 0.00, 0.00, 0.00
128, 19082.04, 52555.75, -187500.02, 53541.61, -187500.02, -187500.02, -187500.02, -187500.02, 0.00, 0.00, 0.00
129, 19212.89, 52795.67, -187500.02, 53340.83, -187500.02, -187500.02, -187500.02, -187500.02, 0.00, 0.00, 0.00
130, 19256.12, 52900.25, -187500.02, 53278.09, -187500.02, -187500.02, -187500.02, -187500.02, 0.00, 0.00, 0.00
131, 19140.85, 52690.68, -187500.02, 53647.89, -187500.02, -187500.02, -187500.02, -187500.02, -3.57, -0.03, 1.07
132, 19035.88, 52470.88, -187500.02, 53735.71, -187500.02, -187500.02, -187500.02, -187500.02, 0.00, 0.00, 0.00
133, 19084.14, 52553.62, -187500.02, 53547.94, -187500.02, -187500.02, -187500.02, -187500.02, 0.00, 0.00, 0.00
134, 19205.13, 52778.19, -187500.02, 53467.34, -187500.02, -187500.02, -187500.02, -187500.02, 0.00, 0.00, 0.00
135, 19250.93, 52888.25, -187500.02, 53516.42, -187500.02, -187500.02, -187500.02, -187500.02, 0.00, 0.00, 0.00
136, 19133.92, 52684.36, -187500.02, 53602.34, -187500.02, -187500.02, -187500.02, -187500.02, 0.00, 0.00, 0.00
137, 19049.65, 52486.54, -187500.02, 53572.97, -187500.02, -187500.02, -187500.02, -187500.02, 0.00, 0.00, 0.00
138, 19091.70, 52561.54, -187500.02, 53517.32, -187500.02, -187500.02, -187500.02, -187500.02, 0.00, 0.00, 0.00
139, 19211.26, 52786.64, -187500.02, 53438.21, -187500.02, -187500.02, -187500.02, -187500.02, 0.00, 0.00, 0.00
140, 19265.50, 52907.67, -187500.02, 53372.34, -187500.02, -187500.02, -187500.02, -187500.02, 0.00, 0.00, 0.00
141, 19150.75, 52705.77, -187500.02, 53551.78, -187500.02, -187500.02, -187500.02, -187500.02, -3.57, -0.03, 1.07
142, 19036.35, 52484.20, -187500.02, 53656.39, -187500.02, -187500.02, -187500.02, -187500.02, 0.00, 0.00, 0.00
143, 19087.03, 52560.93, -187500.02, 53559.72, -187500.02, -187500.02, -187500.02, -187500.02, 0.00, 0.00, 0.00
144, 19197.31, 52777.72, -187500.02, 53460.99, -187500.02, -187500.02, -187500.02, -187500.02, 0.00, 0.00, 0.00
145, 19261.86, 52906.33, -187500.02, 53488.04, -187500.02, -187500.02, -187500.02, -187500.02, 0.00, 0.00, 0.00
146, 19159.54, 52704.47, -187500.02, 53525.70, -187500.02, -187500.02, -187500.02, -187500.02, 0.00, 0.00, 0.00
147, 19038.01, 52474.09, -187500.02, 53525.05, -187500.02, -187500.02, -187500.02, -187500.02, 0.00, 0.00, 0.00
148, 19074.49, 52539.07, -187500.02, 53508.98, -187500.02, -187500.02, -187500.02, -187500.02, 0.00, 0.00, 0.00
149, 19198.31, 52770.32, -187500.02, 53452.16, -187500.02, -187500.02, -187500.02, -187500.02, 0.00, 0.00, 0.00
150, 19252.05, 52890.44, -187500.02, 53491.01, -187500.02, -187500.02, -187500.02, -187500.02, 0.00, 0.00, 0.00
151, 19147.17, 52696.14, -187500.02, 53587.77, -187500.02, -187500.02, -187500.02, -187500.02, 0.00, 0.00, 0.00
152, 19032.49, 52474.72, -187500.02, 53559.32, -187500.02, -187500.02, -187500.02, -187500.02, -3.57, -0.02, 1.07
153, 19064.67, 52531.00, -187500.02, 53475.25, -187500.02, -187500.02, -187500.02, -187500.02, 0.00, 0.00, 0.00
154, 19190.85, 52762.09, -187500.02, 53378.00, -187500.02, -187500.02, -187500.02, -187500.02, 0.00, 0.00, 0.00
155, 19250.13, 52896.36, -187500.02, 53500.66, -187500.02, -187500.02, -187500.02, -187500.02, 0.00, 0.00, 0.00
156, 19153.84, 52705.16, -187500.02, 53559.09, -187500.02, -187500.02, -187500.02, -187500.02, 0.00, 0.00, 0.00
157, 19043.64, 52481.63, -187500.02, 53536.47, -187500.02, -187500.02, -187500.02, -187500.02, 0.00, 0.00, 0.00
158, 19083.16, 52546.87, -187500.02, 53472.28, -187500.02, -187500.02, -187500.02, -187500.02, 0.00, 0.00, 0.00
159, 19216.17, 52780.80, -187500.02, 53343.29, -187500.02, -187500.02, -187500.02, -187500.02, 0.00, 0.00, 0.00
160, 19266.35, 52906.33, -187500.02, 53305.11, -187500.02, -187500.02, -187500.02, -187500.02, 0.00, 0.00, 0.00
161, 19140.11, 52692.36, -187500.02, 53300.15, -187500.02, -187500.02, -187500.02, -187500.02, 0.00, 0.00, 0.00
162, 19024.53, 52466.79, -187500.02, 53306.32, -187500.02, -187500.02, -187500.02, -187500.02, -3.57, -0.03, 1.07
163, 19061.63, 52520.29, -187500.02, 53594.14, -187500.02, -187500.02, -187500.02, -187500.02, 0.00, 0.00, 0.00
164, 19187.23, 52752.91, -187500.02, 53521.83, -187500.02, -187500.02, -187500.02, -187500.02, 0.00, 0.00, 0.00
165, 19252.96, 52900.61, -187500.02, 53432.56, -187500.02, -187500.02, -187500.02, -187500.02, 0.00, 0.00, 0.00
166, 19155.80, 52715.49, -187500.02, 53520.71, -187500.02, -187500.02, -187500.02, -187500.02, 0.00, 0.00, 0.00
167, 19049.14, 52496.60, -187500.02, 53506.34, -187500.02, -187500.02, -187500.02, -187500.02, 0.00, 0.00, 0.00
168, 19075.89, 52536.01, -187500.02, 53409.36, -187500.02, -187500.02, -187500.02, -187500.02, 0.00, 0.00, 0.00
169, 19197.38, 52760.06, -187500.02, 53346.15, -187500.02, -187500.02, -187500.02, -187500.02, 0.00, 0.00, 0.00
170, 19254.98, 52894.95, -187500.02, 53426.55, -187500.02, -187500.02, -187500.02, -187500.02, 0.00, 0.00, 0.00
171, 19164.52, 52720.32, -187500.02, 53577.15, -187500.02, -187500.02, -187500.02, -187500.02, 0.00, 0.00, 0.00
172, 19055.33, 52499.95, -187500.02, 53541.61, -187500.02, -187500.02, -187500.02, -187500.02, 0.00, 0.00, 0.00
173, 19068.03, 52518.75, -187500.02, 53387.86, -187500.02, -187500.02, -187500.02, -187500.02, -3.57, -0.03, 1.07
174, 19176.77, 52732.88, -187500.02, 53509.65, -187500.02, -187500.02, -187500.02, -187500.02, 0.00, 0.00, 0.00
175, 19250.93, 52889.63, -187500.02, 53634.82, -187500.02, -187500.02, -187500.02, -187500.02, 0.00, 0.00, 0.00
176, 19147.76, 52701.46, -187500.02, 53633.30, -187500.02, -187500.02, -187500.02, -187500.02, 0.00, 0.00, 0.00
177, 19051.20, 52493.56, -187500.02, 53611.77, -187500.02, -187500.02, -187500.02, -187500.02, 0.00, 0.00, 0.00
178, 19088.86, 52541.77, -187500.02, 53560.43, -187500.02, -187500.02, -187500.02, -187500.02, 0.00, 0.00, 0.00
179, 19198.79, 52757.29, -187500.02, 53487.19, -187500.02, -187500.02, -187500.02, -187500.02, 0.00, 0.00, 0.00
180, 19260.70, 52908.21, -187500.02, 53463.79, -187500.02, -187500.02, -187500.02, -187500.02, 0.00, 0.00, 0.00
181, 19150.62, 52711.54, -187500.02, 53566.31, -187500.02, -187500.02, -187500.02, -187500.02, 0.00, 0.00, 0.00
182, 19040.87, 52486.25, -187500.02, 53599.79, -187500.02, -187500.02, -187500.02, -187500.02, 0.00, 0.00, 0.00
183, 19068.59, 52515.22, -187500.02, 53549.48, -187500.02, -187500.02, -187500.02, -187500.02, -3.57, -0.02, 1.08
184, 19191.30, 52749.67, -187500.02, 53499.41, -187500.02, -187500.02, -187500.02, -187500.02, 0.00, 0.00, 0.00
185, 19265.50, 52908.66, -187500.02, 53502.68, -187500.02, -187500.02, -187500.02, -187500.02, 0.00, 0.00, 0.00
186, 19161.01, 52719.23, -187500.02, 53532.89, -187500.02, -187500.02, -187500.02, -187500.02, 0.00, 0.00, 0.00
187, 19047.57, 52496.71, -187500.02, 53514.48, -187500.02, -187500.02, -187500.02, -187500.02, 0.00, 0.00, 0.00
188, 19077.79, 52529.01, -187500.02, 53622.17, -187500.02, -187500.02, -187500.02, -187500.02, 0.00, 0.00, 0.00
189, 19189.17, 52742.02, -187500.02, 53548.30, -187500.02, -187500.02, -187500.02, -187500.02, 0.00, 0.00, 0.00
190, 19265.71, 52905.44, -187500.02, 53487.25, -187500.02, -187500.02, -187500.02, -187500.02, 0.00, 0.00, 0.00
191, 19170.17, 52735.90, -187500.02, 53425.88, -187500.02, -187500.02, -187500.02, -187500.02, 0.00, 0.00, 0.00
192, 19053.10, 52505.45, -187500.02, 53479.92, -187500.02, -187500.02, -187500.02, -187500.02, 0.00, 0.00, 0.00
193, 19078.85, 52528.52, -187500.02, 53620.61, -187500.02, -187500.02, -187500.02, -187500.02, -3.57, -0.03, 1.07
194, 19200.51, 52755.12, -187500.02, 53327.84, -187500.02, -187500.02, -187500.02, -187500.02, 0.00, 0.00, 0.00
195, 19248.00, 52883.00, -187500.02, 53114.92, -187500.02, -187500.02, -187500.02, -187500.02, 0.00, 0.00, 0.00
196, 19137.47, 52693.10, -187500.02, 52995.45, -187500.02, -187500.02, -187500.02, -187500.02, 0.00, 0.00, 0.00
197, 19042.41, 52496.02, -187500.02, 52953.14, -187500.02, -187500.02, -187500.02, -187500.02, 0.00, 0.00, 0.00
198, 19065.48, 52512.40, -187500.02, 52955.95, -187500.02, -187500.02, -187500.02, -187500.02, 0.00, 0.00, 0.00
199, 19190.04, 52740.26, -187500.02, 52877.50, -187500.02, -187500.02, -187500.02, -187500.02, 0.00, 0.00, 0.00
200, 19272.75, 52913.95, -187500.02, 53139.01, -187500.02, -187500.02, -187500.02, -187500.02, 0.00, 0.00, 0.00
201, 19168.47, 52733.82, -187500.02, 53354.02, -187500.02, -187500.02, -187500.02, -187500.02, 0.00, 0.00, 0.00
202, 19033.05, 52491.21, -187500.02, 53528.96, -187500.02, -187500.02, -187500.02, -187500.02, 0.00, 0.00, 0.00
203, 19056.72, 52503.71, -187500.02, 53625.59, -187500.02, -187500.02, -187500.02, -187500.02, 0.00, 0.00, 0.00
204, 19192.55, 52741.91, -187500.02, 53564.07, -187500.02, -187500.02, -187500.02, -187500.02, -3.57, -0.02, 1.07
205, 19269.42, 52910.29, -187500.02, 53543.22, -187500.02, -187500.02, -187500.02, -187500.02, 0.00, 0.00, 0.00
206, 19154.06, 52720.25, -187500.02, 53484.88, -187500.02, -187500.02, -187500.02, -187500.02, 0.00, 0.00, 0.00
207, 19038.77, 52491.84, -187500.02, 53531.38, -187500.02, -187500.02, -187500.02, -187500.02, 0.00, 0.00, 0.00
208, 19053.81, 52494.77, -187500.02, 53633.10, -187500.02, -187500.02, -187500.02, -187500.02, 0.00, 0.00, 0.00
209, 19167.45, 52715.67, -187500.02, 53467.09, -187500.02, -187500.02, -187500.02, -187500.02, 0.00, 0.00, 0.00
210, 19248.09, 52889.84, -187500.02, 53466.73, -187500.02, -187500.02, -187500.02, -187500.02, 0.00, 0.00, 0.00
211, 19164.14, 52731.92, -187500.02, 53544.63, -187500.02, -187500.02, -187500.02, -187500.02, 0.00, 0.00, 0.00
212, 19053.10, 52511.64, -187500.02, 53537.97, -187500.02, -187500.02, -187500.02, -187500.02, 0.00, 0.00, 0.00
213, 19054.82, 52498.50, -187500.02, 53545.34, -187500.02, -187500.02, -187500.02, -187500.02, 0.00, 0.00, 0.00
214, 19182.85, 52724.63, -187500.02, 53508.69, -187500.02, -187500.02, -187500.02, -187500.02, -3.56, -0.03, 1.07
215, 19263.89, 52901.30, -187500.02, 53528.16, -187500.02, -187500.02, -187500.02, -187500.02, 0.00, 0.00, 0.00
216, 19168.95, 52734.60, -187500.02, 53574.13, -187500.02, -187500.02, -187500.02, -187500.02, 0.00, 0.00, 0.00
217, 19063.98, 52514.68, -187500.02, 53578.27, -187500.02, -187500.02, -187500.02, -187500.02, 0.00, 0.00, 0.00
218, 19059.20, 52492.49, -187500.02, 53473.57, -187500.02, -187500.02, -187500.02, -187500.02, 0.00, 0.00, 0.00
219, 19160.85, 52699.53, -187500.02, 53371.56, -187500.02, -187500.02, -187500.02, -187500.02, 0.00, 0.00, 0.00
220, 19250.08, 52884.43, -187500.02, 53460.07, -187500.02, -187500.02, -187500.02, -187500.02, 0.00, 0.00, 0.00
221, 19180.54, 52749.54, -187500.02, 53555.47, -187500.02, -187500.02, -187500.02, -187500.02, 0.00, 0.00, 0.00
222, 19064.52, 52526.69, -187500.02, 53499.39, -187500.02, -187500.02, -187500.02, -187500.02, 0.00, 0.00, 0.00
223, 19056.38, 52499.73, -187500.02, 53636.25, -187500.02, -187500.02, -187500.02, -187500.02, 0.00, 0.00, 0.00
224, 19185.60, 52720.97, -187500.02, 53536.72, -187500.02, -187500.02, -187500.02, -187500.02, -3.57, -0.02, 1.06
225, 19253.28, 52875.11, -187500.02, 53439.42, -187500.02, -187500.02, -187500.02, -187500.02, 0.00, 0.00, 0.00
226, 19156.14, 52716.27, -187500.02, 53454.29, -187500.02, -187500.02, -187500.02, -187500.02, 0.00, 0.00, 0.00
227, 19052.69, 52498.55, -187500.02, 53516.47, -187500.02, -187500.02, -187500.02, -187500.02, 0.00, 0.00, 0.00
228, 19051.38, 52466.45, -187500.02, 53533.01, -187500.02, -187500.02, -187500.02, -187500.02, 0.00, 0.00, 0.00
229, 19190.56, 52708.59, -187500.02, 53446.84, -187500.02, -187500.02, -187500.02, -187500.02, 0.00, 0.00, 0.00
230, 19277.17, 52894.42, -187500.02, 53459.13, -187500.02, -187500.02, -187500.02, -187500.02, 0.00, 0.00, 0.00
231, 19168.14, 52718.18, -187500.02, 53482.54, -187500.02, -187500.02, -187500.02, -187500.02, 0.00, 0.00, 0.00
232, 19042.97, 52479.86, -187500.02, 53525.68, -187500.02, -187500.02, -187500.02, -187500.02, 0.00, 0.00, 0.00
233, 19051.40, 52462.02, -187500.02, 53489.58, -187500.02, -187500.02, -187500.02, -187500.02, 0.00, 0.00, 0.00
234, 19170.62, 52685.14, -187500.02, 53354.42, -187500.02, -187500.02, -187500.02, -187500.02, 0.00, 0.00, 0.00
235, 19243.64, 52857.43, -187500.02, 53386.04, -187500.02, -187500.02, -187500.02, -187500.02, -3.57, -0.02, 1.07
236, 19165.23, 52712.32, -187500.02, 53445.28, -187500.02, -187500.02, -187500.02, -187500.02, 0.00, 0.00, 0.00
237, 19087.32, 52532.72, -187500.02, 53467.88, -187500.02, -187500.02, -187500.02, -187500.02, 0.00, 0.00, 0.00
238, 19076.95, 52491.33, -187500.02, 53443.87, -187500.02, -187500.02, -187500.02, -187500.02, 0.00, 0.00, 0.00
239, 19170.78, 52686.84, -187500.02, 53257.61, -187500.02, -187500.02, -187500.02, -187500.02, 0.00, 0.00, 0.00
240, 19236.34, 52847.88, -187500.02, 53453.48, -187500.02, -187500.02, -187500.02, -187500.02, 0.00, 0.00, 0.00
241, 19165.86, 52721.91, -187500.02, 53510.21, -187500.02, -187500.02, -187500.02, -187500.02, 0.00, 0.00, 0.00
242, 19059.02, 52501.41, -187500.02, 53460.39, -187500.02, -187500.02, -187500.02, -187500.02, 0.00, 0.00, 0.00
243, 19050.95, 52461.91, -187500.02, 53392.86, -187500.02, -187500.02, -187500.02, -187500.02, 0.00, 0.00, 0.00
244, 19180.17, 52696.09, -187500.02, 53345.23, -187500.02, -187500.02, -187500.02, -187500.02, 0.00, 0.00, 0.00
245, 19274.49, 52890.66, -187500.02, 53379.96, -187500.02, -187500.02, -187500.02, -187500.02, -3.57, -0.03, 1.07
246, 19192.55, 52746.49, -187500.02, 53413.58, -187500.02, -187500.02, -187500.02, -187500.02, 0.00, 0.00, 0.00
247, 19073.70, 52521.77, -187500.02, 53391.03, -187500.02, -187500.02, -187500.02, -187500.02, 0.00, 0.00, 0.00
248, 19034.14, 52448.77, -187500.02, 53387.39, -187500.02, -187500.02, -187500.02, -187500.02, 0.00, 0.00, 0.00
249, 19165.75, 52678.10, -187500.02, 53300.04, -187500.02, -187500.02, -187500.02, -187500.02, 0.00, 0.00, 0.00
250, 19254.82, 52867.53, -187500.02, 53295.57, -187500.02, -187500.02, -187500.02, -187500.02, 0.00, 0.00, 0.00
251, 19180.70, 52737.29, -187500.02, 53300.39, -187500.02, -187500.02, -187500.02, -187500.02, 0.00, 0.00, 0.00
252, 19077.77, 52525.43, -187500.02, 53276.79, -187500.02, -187500.02, -187500.02, -187500.02, 0.00, 0.00, 0.00
253, 19056.58, 52464.30, -187500.02, 53204.64, -187500.02, -187500.02, -187500.02, -187500.02, 0.00, 0.00, 0.00
254, 19182.91, 52690.23, -187500.02, 53200.97, -187500.02, -187500.02, -187500.02, -187500.02, 0.00, 0.00, 0.00
255, 19265.62, 52878.82, -187500.02, 53226.52, -187500.02, -187500.02, -187500.02, -187500.02, -3.57, -0.03, 1.07
0, 19190.00, 52755.08, -187500.02, 53305.71, -187500.02, -187500.02, -187500.02, -187500.02, 0.00, 0.00, 0.00
1, 19081.13, 52533.84, -187500.02, 53329.32, -187500.02, -187500.02, -187500.02, -187500.02, 0.00, 0.00, 0.00
2, 19053.21, 52460.73, -187500.02, 53279.07, -187500.02, -187500.02, -187500.02, -187500.02, 0.00, 0.00, 0.00
3, 19179.32, 52683.04, -187500.02, 53172.41, -187500.02, -187500.02, -187500.02, -187500.02, 0.00, 0.00, 0.00
4, 19273.26, 52880.34, -187500.02, 53149.77, -187500.02, -187500.02, -187500.02, -187500.02, 0.00, 0.00, 0.00
5, 19213.80, 52783.11, -187500.02, 53182.00, -187500.02, -187500.02, -187500.02, -187500.02, 0.00, 0.00, 0.00
6, 19099.47, 52562.23, -187500.02, 53259.49, -187500.02, -187500.02, -187500.02, -187500.02, 0.00, 0.00, 0.00
7, 19056.78, 52467.39, -187500.02, 53231.97, -187500.02, -187500.02, -187500.02, -187500.02, 0.00, 0.00, 0.00
8, 19152.05, 52658.65, -187500.02, 53138.61, -187500.02, -187500.02, -187500.02, -187500.02, 0.00, 0.00, 0.00
9, 19252.25, 52863.17, -187500.02, 53159.78, -187500.02, -187500.02, -187500.02, -187500.02, 0.00, 0.00, 0.00
10, 19196.30, 52766.57, -187500.02, 53212.13, -187500.02, -187500.02, -187500.02, -187500.02, -3.57, -0.02, 1.06
11, 19091.41, 52543.92, -187500.02, 53158.97, -187500.02, -187500.02, -187500.02, -187500.02, 0.00, 0.00, 0.00
12, 19057.52, 52461.38, -187500.02, 53160.67, -187500.02, -187500.02, -187500.02, -187500.02, 0.00, 0.00, 0.00
13, 19173.30, 52682.01, -187500.02, 53298.71, -187500.02, -187500.02, -187500.02, -187500.02, 0.00, 0.00, 0.00
14, 19262.84, 52876.29, -187500.02, 53327.84, -187500.02, -187500.02, -187500.02, -187500.02, 0.00, 0.00, 0.00
15, 19197.55, 52764.29, -187500.02, 53352.23, -187500.02, -187500.02, -187500.02, -187500.02, 0.00, 0.00, 0.00
16, 19094.00, 52547.09, -187500.02, 53355.13, -187500.02, -187500.02, -187500.02, -187500.02, 0.00, 0.00, 0.00
17, 19064.23, 52466.02, -187500.02, 53386.76, -187500.02, -187500.02, -187500.02, -187500.02, 0.00, 0.00, 0.00
18, 19177.04, 52679.11, -187500.02, 53347.22, -187500.02, -187500.02, -187500.02, -187500.02, 0.00, 0.00, 0.00
19, 19258.08, 52870.88, -187500.02, 53365.70, -187500.02, -187500.02, -187500.02, -187500.02, 0.00, 0.00, 0.00
20, 19193.02, 52760.91, -187500.02, 53321.16, -187500.02, -187500.02, -187500.02, -187500.02, -3.57, -0.03, 1.07
21, 19100.30, 52556.86, -187500.02, 53490.02, -187500.02, -187500.02, -187500.02, -187500.02, 0.00, 0.00, 0.00
22, 19069.61, 52466.96, -187500.02, 53617.34, -187500.02, -187500.02, -187500.02, -187500.02, 0.00, 0.00, 0.00
23, 19181.55, 52681.54, -187500.02, 53433.95, -187500.02, -187500.02, -187500.02, -187500.02, 0.00, 0.00, 0.00
24, 19277.84, 52888.23, -187500.02, 53434.44, -187500.02, -187500.02, -187500.02, -187500.02, 0.00, 0.00, 0.00
25, 19210.56, 52782.32, -187500.02, 53462.91, -187500.02, -187500.02, -187500.02, -187500.02, 0.00, 0.00, 0.00
26, 19070.15, 52534.40, -187500.02, 53537.93, -187500.02, -187500.02, -187500.02, -187500.02, 0.00, 0.00, 0.00
27, 19027.35, 52430.62, -187500.02, 53528.27, -187500.02, -187500.02, -187500.02, -187500.02, 0.00, 0.00, 0.00
28, 19160.52, 52658.00, -187500.02, 53392.71, -187500.02, -187500.02, -187500.02, -187500.02, 0.00, 0.00, 0.00
29, 19262.29, 52864.73, -187500.02, 53406.99, -187500.02, -187500.02, -187500.02, -187500.02, 0.00, 0.00, 0.00
30, 19204.57, 52771.15, -187500.02, 53455.43, -187500.02, -187500.02, -187500.02, -187500.02, -3.56, -0.02, 1.07
31, 19086.38, 52548.43, -187500.02, 53547.13, -187500.02, -187500.02, -187500.02, -187500.02, 0.00, 0.00, 0.00
32, 19045.25, 52450.94, -187500.02, 53540.16, -187500.02, -187500.02, -187500.02, -187500.02, 0.00, 0.00, 0.00
33, 19162.82, 52661.18, -187500.02, 53453.10, -187500.02, -187500.02, -187500.02, -187500.02, 0.00, 0.00, 0.00
34, 19269.86, 52871.30, -187500.02, 53482.83, -187500.02, -187500.02, -187500.02, -187500.02, 0.00, 0.00, 0.00
35, 19209.27, 52777.23, -187500.02, 53476.70, -187500.02, -187500.02, -187500.02, -187500.02, 0.00, 0.00, 0.00
36, 19098.51, 52559.03, -187500.02, 53457.95, -187500.02, -187500.02, -187500.02, -187500.02, 0.00, 0.00, 0.00
37, 19064.74, 52462.74, -187500.02, 53402.70, -187500.02, -187500.02, -187500.02, -187500.02, 0.00, 0.00, 0.00
38, 19174.85, 52667.82, -187500.02, 53497.00, -187500.02, -187500.02, -187500.02, -187500.02, 0.00, 0.00, 0.00
39, 19263.20, 52863.33, -187500.02, 53577.66, -187500.02, -187500.02, -187500.02, -187500.02, 0.00, 0.00, 0.00
40, 19210.29, 52785.86, -187500.02, 53507.79, -187500.02, -187500.02, -187500.02, -187500.02, 0.00, 0.00, 0.00
41, 19102.34, 52566.00, -187500.02, 53537.66, -187500.02, -187500.02, -187500.02, -187500.02, -3.57, -0.02, 1.06
42, 19040.00, 52436.70, -187500.02, 53462.78, -187500.02, -187500.02, -187500.02, -187500.02, 0.00, 0.00, 0.00
43, 19141.50, 52634.40, -187500.02, 53393.51, -187500.02, -187500.02, -187500.02, -187500.02, 0.00, 0.00, 0.00
44, 19250.39, 52851.50, -187500.02, 53410.74, -187500.02, -187500.02, -187500.02, -187500.02, 0.00, 0.00, 0.00
45, 19209.27, 52788.87, -187500.02, 53415.57, -187500.02, -187500.02, -187500.02, -187500.02, 0.00, 0.00, 0.00
46, 19098.40, 52570.47, -187500.02, 53475.16, -187500.02, -187500.02, -187500.02, -187500.02, 0.00, 0.00, 0.00
47, 19050.30, 52441.39, -187500.02, 53577.42, -187500.02, -187500.02, -187500.02, -187500.02, 0.00, 0.00, 0.00
48, 19166.87, 52651.81, -187500.02, 53468.46, -187500.02, -187500.02, -187500.02, -187500.02, 0.00, 0.00, 0.00
49, 19262.02, 52859.50, -187500.02, 53420.71, -187500.02, -187500.02, -187500.02, -187500.02, 0.00, 0.00, 0.00
50, 19191.05, 52770.14, -187500.02, 53275.09, -187500.02, -187500.02, -187500.02, -187500.02, 0.00, 0.00, 0.00
51, 19078.58, 52550.58, -187500.02, 53438.17, -187500.02, -187500.02, -187500.02, -187500.02, -3.56, -0.02, 1.06
52, 19044.69, 52442.89, -187500.02, 53727.09, -187500.02, -187500.02, -187500.02, -187500.02, 0.00, 0.00, 0.00
53, 19167.45, 52656.08, -187500.02, 53477.91, -187500.02, -187500.02, -187500.02, -187500.02, 0.00, 0.00, 0.00
54, 19261.64, 52862.28, -187500.02, 53416.82, -187500.02, -187500.02, -187500.02, -187500.02, 0.00, 0.00, 0.00
55, 19216.89, 52799.27, -187500.02, 53463.94, -187500.02, -187500.02, -187500.02, -187500.02, 0.00, 0.00, 0.00
56, 19107.50, 52583.04, -187500.02, 53556.03, -187500.02, -187500.02, -187500.02, -187500.02, 0.00, 0.00, 0.00
57, 19052.58, 52447.20, -187500.02, 53537.10, -187500.02, -187500.02, -187500.02, -187500.02, 0.00, 0.00, 0.00
58, 19141.99, 52620.65, -187500.02, 53389.75, -187500.02, -187500.02, -187500.02, -187500.02, 0.00, 0.00, 0.00
59, 19255.83, 52848.39, -187500.02, 53361.84, -187500.02, -187500.02, -187500.02, -187500.02, 0.00, 0.00, 0.00
60, 19217.34, 52800.54, -187500.02, 53433.21, -187500.02, -187500.02, -187500.02, -187500.02, 0.00, 0.00, 0.00
61, 19098.56, 52572.71, -187500.02, 53605.98, -187500.02, -187500.02, -187500.02, -187500.02, -3.57, -0.03, 1.07
62, 19039.93, 52434.84, -187500.02, 53538.66, -187500.02, -187500.02, -187500.02, -187500.02, 0.00, 0.00, 0.00
63, 19130.57, 52612.90, -187500.02, 53352.18, -187500.02, -187500.02, -187500.02, -187500.02, 0.00, 0.00, 0.00
64, 19232.18, 52822.24, -187500.02, 53375.02, -187500.02, -187500.02, -187500.02, -187500.02, 0.00, 0.00, 0.00
65, 19194.65, 52774.34, -187500.02, 53614.75, -187500.02, -187500.02, -187500.02, -187500.02, 0.00, 0.00, 0.00
66, 19085.62, 52559.54, -187500.02, 53667.07, -187500.02, -187500.02, -187500.02, -187500.02, 0.00, 0.00, 0.00
67, 19034.97, 52428.63, -187500.02, 53574.92, -187500.02, -187500.02, -187500.02, -187500.02, 0.00, 0.00, 0.00
68, 19145.45, 52624.77, -187500.02, 53444.90, -187500.02, -187500.02, -187500.02, -187500.02, 0.00, 0.00, 0.00
69, 19264.63, 52854.23, -187500.02, 53417.29, -187500.02, -187500.02, -187500.02, -187500.02, 0.00, 0.00, 0.00
70, 19244.22, 52823.83, -187500.02, 53421.41, -187500.02, -187500.02, -187500.02, -187500.02, 0.00, 0.00, 0.00
71, 19098.92, 52580.06, -187500.02, 53498.25, -187500.02, -187500.02, -187500.02, -187500.02, 0.00, 0.00, 0.00
72, 19016.30, 52411.98, -187500.02, 53595.39, -187500.02, -187500.02, -187500.02, -187500.02, -3.56, -0.03, 1.07
73, 19127.37, 52607.24, -187500.02, 53453.03, -187500.02, -187500.02, -187500.02, -187500.02, 0.00, 0.00, 0.00
74, 19244.72, 52833.73, -187500.02, 53433.74, -187500.02, -187500.02, -187500.02, -187500.02, 0.00, 0.00, 0.00
75, 19226.54, 52809.59, -187500.02, 53503.95, -187500.02, -187500.02, -187500.02, -187500.02, 0.00, 0.00, 0.00
76, 19093.93, 52573.09, -187500.02, 53584.57, -187500.02, -187500.02, -187500.02, -187500.02, 0.00, 0.00, 0.00
77, 19019.41, 52415.96, -187500.02, 53554.84, -187500.02, -187500.02, -187500.02, -187500.02, 0.00, 0.00, 0.00
78, 19126.70, 52603.69, -187500.02, 53446.06, -187500.02, -187500.02, -187500.02, -187500.02, 0.00, 0.00, 0.00
79, 19229.07, 52816.10, -187500.02, 53478.04, -187500.02, -187500.02, -187500.02, -187500.02, 0.00, 0.00, 0.00
80, 19211.26, 52798.68, -187500.02, 53519.15, -187500.02, -187500.02, -187500.02, -187500.02, 0.00, 0.00, 0.00
81, 19111.23, 52597.00, -187500.02, 53599.79, -187500.02, -187500.02, -187500.02, -187500.02, 0.00, 0.00, 0.00
82, 19046.48, 52444.54, -187500.02, 53530.79, -187500.02, -187500.02, -187500.02, -187500.02, -3.57, -0.03, 1.07
83, 19135.04, 52615.82, -187500.02, 53410.36, -187500.02, -187500.02, -187500.02, -187500.02, 0.00, 0.00, 0.00
84, 19225.65, 52809.10, -187500.02, 53424.45, -187500.02, -187500.02, -187500.02, -187500.02, 0.00, 0.00, 0.00
85, 19201.47, 52789.48, -187500.02, 53530.77, -187500.02, -187500.02, -187500.02, -187500.02, 0.00, 0.00, 0.00
86, 19093.26, 52575.91, -187500.02, 53650.42, -187500.02, -187500.02, -187500.02, -187500.02, 0.00, 0.00, 0.00
87, 19034.95, 52424.41, -187500.02, 53554.91, -187500.02, -187500.02, -187500.02, -187500.02, 0.00, 0.00, 0.00
88, 19155.56, 52624.34, -187500.02, 53377.44, -187500.02, -187500.02, -187500.02, -187500.02, 0.00, 0.00, 0.00
89, 19259.47, 52842.99, -187500.02, 53465.55, -187500.02, -187500.02, -187500.02, -187500.02, 0.00, 0.00, 0.00
90, 19205.74, 52799.16, -187500.02, 53444.09, -187500.02, -187500.02, -187500.02, -187500.02, 0.00, 0.00, 0.00
91, 19075.04, 52558.79, -187500.02, 53596.08, -187500.02, -187500.02, -187500.02, -187500.02, 0.00, 0.00, 0.00
92, 19005.08, 52394.59, -187500.02, 53624.45, -187500.02, -187500.02, -187500.02, -187500.02, 0.00, 0.00, 0.00
93, 19113.31, 52586.61, -187500.02, 53522.19, -187500.02, -187500.02, -187500.02, -187500.02, -3.56, -0.03, 1.07
94, 19218.34, 52803.25, -187500.02, 53427.17, -187500.02, -187500.02, -187500.02, -187500.02, 0.00, 0.00, 0.00
95, 19191.54, 52785.97, -187500.02, 53474.63, -187500.02, -187500.02, -187500.02, -187500.02, 0.00, 0.00, 0.00
96, 19082.40, 52563.86, -187500.02, 53585.60, -187500.02, -187500.02, -187500.02, -187500.02, 0.00, 0.00, 0.00
97, 19011.90, 52402.28, -187500.02, 53529.59, -187500.02, -187500.02, -187500.02, -187500.02, 0.00, 0.00, 0.00
98, 19119.64, 52591.91, -187500.02, 53515.93, -187500.02, -187500.02, -187500.02, -187500.02, 0.00, 0.00, 0.00
99, 19235.84, 52821.84, -187500.02, 53520.13, -187500.02, -187500.02, -187500.02, -187500.02, 0.00, 0.00, 0.00
100, 19211.32, 52808.03, -187500.02, 53521.29, -187500.02, -187500.02, -187500.02, -187500.02, 0.00, 0.00, 0.00
101, 19089.93, 52576.24, -187500.02, 53608.29, -187500.02, -187500.02, -187500.02, -187500.02, 0.00, 0.00, 0.00
102, 19013.20, 52409.70, -187500.02, 53567.90, -187500.02, -187500.02, -187500.02, -187500.02, 0.00, 0.00, 0.00
103, 19124.67, 52598.05, -187500.02, 53482.43, -187500.02, -187500.02, -187500.02, -187500.02, -3.56, -0.03, 1.07
104, 19236.16, 52816.37, -187500.02, 53459.00, -187500.02, -187500.02, -187500.02, -187500.02, 0.00, 0.00, 0.00
105, 19211.64, 52807.07, -187500.02, 53423.55, -187500.02, -187500.02, -187500.02, -187500.02, 0.00, 0.00, 0.00
106, 19083.40, 52566.12, -187500.02, 53498.32, -187500.02, -187500.02, -187500.02, -187500.02, 0.00, 0.00, 0.00
107, 19002.92, 52391.21, -187500.02, 53586.85, -187500.02, -187500.02, -187500.02, -187500.02, 0.00, 0.00, 0.00
108, 19104.35, 52573.58, -187500.02, 53466.73, -187500.02, -187500.02, -187500.02, -187500.02, 0.00, 0.00, 0.00
109, 19222.48, 52804.45, -187500.02, 53322.07, -187500.02, -187500.02, -187500.02, -187500.02, 0.00, 0.00, 0.00
110, 19224.89, 52826.13, -187500.02, 53466.78, -187500.02, -187500.02, -187500.02, -187500.02, 0.00, 0.00, 0.00
111, 19103.12, 52600.80, -187500.02, 53705.18, -187500.02, -187500.02, -187500.02, -187500.02, 0.00, 0.00, 0.00
112, 19028.29, 52432.74, -187500.02, 53660.48, -187500.02, -187500.02, -187500.02, -187500.02, 0.00, 0.00, 0.00
113, 19129.05, 52597.09, -187500.02, 53523.84, -187500.02, -187500.02, -187500.02, -187500.02, -3.56, -0.03, 1.07
114, 19233.14, 52806.71, -187500.02, 53465.13, -187500.02, -187500.02, -187500.02, -187500.02, 0.00, 0.00, 0.00
115, 19225.32, 52826.04, -187500.02, 53441.30, -187500.02, -187500.02, -187500.02, -187500.02, 0.00, 0.00, 0.00
116, 19104.55, 52603.44, -187500.02, 53529.07, -187500.02, -187500.02, -187500.02, -187500.02, 0.00, 0.00, 0.00
117, 19019.08, 52414.79, -187500.02, 53579.50, -187500.02, -187500.02, -187500.02, -187500.02, 0.00, 0.00, 0.00
118, 19106.27, 52570.47, -187500.02, 53519.37, -187500.02, -187500.02, -187500.02, -187500.02, 0.00, 0.00, 0.00
119, 19225.74, 52799.27, -187500.02, 53433.16, -187500.02, -187500.02, -187500.02, -187500.02, 0.00, 0.00, 0.00
120, 19225.81, 52829.60, -187500.02, 53430.73, -187500.02, -187500.02, -187500.02, -187500.02, 0.00, 0.00, 0.00
121, 19096.23, 52597.81, -187500.02, 53564.16, -187500.02, -187500.02, -187500.02, -187500.02, 0.00, 0.00, 0.00
122, 19026.27, 52425.59, -187500.02, 53680.98, -187500.02, -187500.02, -187500.02, -187500.02, 0.00, 0.00, 0.00
123, 19119.62, 52583.01, -187500.02, 53607.35, -187500.02, -187500.02, -187500.02, -187500.02, 0.00, 0.00, 0.00
124, 19221.00, 52797.68, -187500.02, 53483.03, -187500.02, -187500.02, -187500.02, -187500.02, -3.57, -0.03, 1.07
125, 19224.47, 52825.86, -187500.02, 53506.68, -187500.02, -187500.02, -187500.02, -187500.02, 0.00, 0.00, 0.00
126, 19114.07, 52610.55, -187500.02, 53590.56, -187500.02, -187500.02, -187500.02, -187500.02, 0.00, 0.00, 0.00
127, 19029.85, 52424.34, -187500.02, 53538.06, -187500.02, -187500.02, -187500.02, -187500.02, 0.00, 0.00, 0.00
128, 19115.01, 52579.48, -187500.02, 53454.73, -187500.02, -187500.02, -187500.02, -187500.02, 0.00, 0.00, 0.00
129, 19223.37, 52799.04, -187500.02, 53407.19, -187500.02, -187500.02, -187500.02, -187500.02, 0.00, 0.00, 0.00
130, 19216.46, 52825.35, -187500.02, 53433.90, -187500.02, -187500.02, -187500.02, -187500.02, 0.00, 0.00, 0.00
131, 19091.09, 52591.39, -187500.02, 53520.36, -187500.02, -187500.02, -187500.02, -187500.02, 0.00, 0.00, 0.00
132, 19011.03, 52396.93, -187500.02, 53413.31, -187500.02, -187500.02, -187500.02, -187500.02, 0.00, 0.00, 0.00
133, 19097.49, 52548.91, -187500.02, 53349.88, -187500.02, -187500.02, -187500.02, -187500.02, 0.00, 0.00, 0.00
134, 19207.39, 52780.20, -187500.02, 53402.20, -187500.02, -187500.02, -187500.02, -187500.02, -3.57, -0.02, 1.07
135, 19234.53, 52841.15, -187500.02, 53532.89, -187500.02, -187500.02, -187500.02, -187500.02, 0.00, 0.00, 0.00
136, 19107.90, 52606.80, -187500.02, 53587.34, -187500.02, -187500.02, -187500.02, -187500.02, 0.00, 0.00, 0.00
137, 19008.44, 52404.07, -187500.02, 53411.91, -187500.02, -187500.02, -187500.02, -187500.02, 0.00, 0.00, 0.00
138, 19098.31, 52554.65, -187500.02, 53293.24, -187500.02, -187500.02, -187500.02, -187500.02, 0.00, 0.00, 0.00
139, 19203.72, 52783.51, -187500.02, 53316.02, -187500.02, -187500.02, -187500.02, -187500.02, 0.00, 0.00, 0.00
140, 19222.90, 52833.80, -187500.02, 53473.37, -187500.02, -187500.02, -187500.02, -187500.02, 0.00, 0.00, 0.00
141, 19124.73, 52621.88, -187500.02, 53568.73, -187500.02, -187500.02, -187500.02, -187500.02, 0.00, 0.00, 0.00
142, 19037.54, 52435.76, -187500.02, 53479.39, -187500.02, -187500.02, -187500.02, -187500.02, 0.00, 0.00, 0.00
143, 19100.24, 52547.61, -187500.02, 53391.43, -187500.02, -187500.02, -187500.02, -187500.02, 0.00, 0.00, 0.00
144, 19206.05, 52765.11, -187500.02, 53374.29, -187500.02, -187500.02, -187500.02, -187500.02, -3.57, -0.02, 1.07
145, 19224.47, 52841.54, -187500.02, 53456.77, -187500.02, -187500.02, -187500.02, -187500.02, 0.00, 0.00, 0.00
146, 19103.83, 52608.61, -187500.02, 53495.16, -187500.02, -187500.02, -187500.02, -187500.02, 0.00, 0.00, 0.00
147, 19026.74, 52422.55, -187500.02, 53454.73, -187500.02, -187500.02, -187500.02, -187500.02, 0.00, 0.00, 0.00
148, 19103.70, 52558.63, -187500.02, 53494.45, -187500.02, -187500.02, -187500.02, -187500.02, 0.00, 0.00, 0.00
149, 19205.91, 52774.19, -187500.02, 53477.08, -187500.02, -187500.02, -187500.02, -187500.02, 0.00, 0.00, 0.00
150, 19236.71, 52851.14, -187500.02, 53539.04, -187500.02, -187500.02, -187500.02, -187500.02, 0.00, 0.00, 0.00
151, 19126.90, 52634.31, -187500.02, 53612.49, -187500.02, -187500.02, -187500.02, -187500.02, 0.00, 0.00, 0.00
152, 19011.95, 52416.09, -187500.02, 53581.67, -187500.02, -187500.02, -187500.02, -187500.02, 0.00, 0.00, 0.00
153, 19095.83, 52541.46, -187500.02, 53527.04, -187500.02, -187500.02, -187500.02, -187500.02, 0.00, 0.00, 0.00
154, 19215.68, 52757.65, -187500.02, 53471.94, -187500.02, -187500.02, -187500.02, -187500.02, 0.00, 0.00, 0.00
155, 19219.48, 52819.16, -187500.02, 53436.07, -187500.02, -187500.02, -187500.02, -187500.02, -3.56, -0.03, 1.07
156, 19109.31, 52615.85, -187500.02, 53597.45, -187500.02, -187500.02, -187500.02, -187500.02, 0.00, 0.00, 0.00
157, 19021.69, 52429.34, -187500.02, 53614.88, -187500.02, -187500.02, -187500.02, -187500.02, 0.00, 0.00, 0.00
158, 19094.54, 52552.82, -187500.02, 53463.36, -187500.02, -187500.02, -187500.02, -187500.02, 0.00, 0.00, 0.00
159, 19207.75, 52775.24, -187500.02, 53441.59, -187500.02, -187500.02, -187500.02, -187500.02, 0.00, 0.00, 0.00
160, 19240.72, 52850.16, -187500.02, 53473.44, -187500.02, -187500.02, -187500.02, -187500.02, 0.00, 0.00, 0.00
161, 19118.72, 52625.21, -187500.02, 53729.08, -187500.02, -187500.02, -187500.02, -187500.02, 0.00, 0.00, 0.00
162, 19014.74, 52416.02, -187500.02, 53678.23, -187500.02, -187500.02, -187500.02, -187500.02, 0.00, 0.00, 0.00
163, 19077.64, 52530.26, -187500.02, 53505.36, -187500.02, -187500.02, -187500.02, -187500.02, 0.00, 0.00, 0.00
164, 19185.33, 52739.68, -187500.02, 53428.47, -187500.02, -187500.02, -187500.02, -187500.02, 0.00, 0.00, 0.00
165, 19212.75, 52814.46, -187500.02, 53480.95, -187500.02, -187500.02, -187500.02, -187500.02, -3.56, -0.03, 1.07
166, 19107.12, 52610.42, -187500.02, 53502.88, -187500.02, -187500.02, -187500.02, -187500.02, 0.00, 0.00, 0.00
167, 19024.66, 52417.39, -187500.02, 53512.33, -187500.02, -187500.02, -187500.02, -187500.02, 0.00, 0.00, 0.00
168, 19109.71, 52553.42, -187500.02, 53544.83, -187500.02, -187500.02, -187500.02, -187500.02, 0.00, 0.00, 0.00
169, 19213.22, 52770.54, -187500.02, 53450.08, -187500.02, -187500.02, -187500.02, -187500.02, 0.00, 0.00, 0.00
170, 19233.63, 52835.79, -187500.02, 53441.16, -187500.02, -187500.02, -187500.02, -187500.02, 0.00, 0.00, 0.00
171, 19110.03, 52617.12, -187500.02, 53334.25, -187500.02, -187500.02, -187500.02, -187500.02, 0.00, 0.00, 0.00
172, 19003.88, 52410.04, -187500.02, 53022.63, -187500.02, -187500.02, -187500.02, -187500.02, 0.00, 0.00, 0.00
173, 19078.58, 52518.35, -187500.02, 52889.25, -187500.02, -187500.02, -187500.02, -187500.02, 0.00, 0.00, 0.00
174, 19188.77, 52737.66, -187500.02, 52886.15, -187500.02, -187500.02, -187500.02, -187500.02, 0.00, 0.00, 0.00
175, 19227.51, 52839.45, -187500.02, 52927.86, -187500.02, -187500.02, -187500.02, -187500.02, -3.57, -0.03, 1.07
176, 19128.24, 52640.17, -187500.02, 53053.81, -187500.02, -187500.02, -187500.02, -187500.02, 0.00, 0.00, 0.00
177, 19013.42, 52417.05, -187500.02, 53240.58, -187500.02, -187500.02, -187500.02, -187500.02, 0.00, 0.00, 0.00
178, 19069.59, 52509.97, -187500.02, 53395.79, -187500.02, -187500.02, -187500.02, -187500.02, 0.00, 0.00, 0.00
179, 19182.71, 52740.19, -187500.02, 53420.76, -187500.02, -187500.02, -187500.02, -187500.02, 0.00, 0.00, 0.00
180, 19233.90, 52848.39, -187500.02, 53521.16, -187500.02, -187500.02, -187500.02, -187500.02, 0.00, 0.00, 0.00
181, 19128.42, 52639.18, -187500.02, 53611.30, -187500.02, -187500.02, -187500.02, -187500.02, 0.00, 0.00, 0.00
182, 19028.17, 52436.09, -187500.02, 53566.82, -187500.02, -187500.02, -187500.02, -187500.02, 0.00, 0.00, 0.00
183, 19085.73, 52529.30, -187500.02, 53525.14, -187500.02, -187500.02, -187500.02, -187500.02, 0.00, 0.00, 0.00
184, 19194.98, 52746.11, -187500.02, 53438.26, -187500.02, -187500.02, -187500.02, -187500.02, 0.00, 0.00, 0.00
185, 19229.09, 52841.20, -187500.02, 53468.19, -187500.02, -187500.02, -187500.02, -187500.02, 0.00, 0.00, 0.00
186, 19125.92, 52640.55, -187500.02, 53615.69, -187500.02, -187500.02, -187500.02, -187500.02, -3.57, -0.03, 1.07
187, 19025.51, 52430.66, -187500.02, 53574.98, -187500.02, -187500.02, -187500.02, -187500.02, 0.00, 0.00, 0.00
188, 19055.89, 52494.30, -187500.02, 53558.82, -187500.02, -187500.02, -187500.02, -187500.02, 0.00, 0.00, 0.00
189, 19179.00, 52727.85, -187500.02, 53442.21, -187500.02, -187500.02, -187500.02, -187500.02, 0.00, 0.00, 0.00
190, 19239.55, 52856.44, -187500.02, 53553.79, -187500.02, -187500.02, -187500.02, -187500.02, 0.00, 0.00, 0.00
191, 19140.42, 52660.53, -187500.02, 53613.18, -187500.02, -187500.02, -187500.02, -187500.02, 0.00, 0.00, 0.00
192, 19031.66, 52442.11, -187500.02, 53502.27, -187500.02, -187500.02, -187500.02, -187500.02, 0.00, 0.00, 0.00
193, 19072.92, 52511.27, -187500.02, 53442.06, -187500.02, -187500.02, -187500.02, -187500.02, 0.00, 0.00, 0.00
194, 19186.56, 52733.89, -187500.02, 53459.61, -187500.02, -187500.02, -187500.02, -187500.02, 0.00, 0.00, 0.00
195, 19224.13, 52840.86, -187500.02, 53355.91, -187500.02, -187500.02, -187500.02, -187500.02, 0.00, 0.00, 0.00
196, 19116.06, 52638.22, -187500.02, 53562.04, -187500.02, -187500.02, -187500.02, -187500.02, -3.57, -0.02, 1.07
197, 19021.04, 52429.57, -187500.02, 53619.35, -187500.02, -187500.02, -187500.02, -187500.02, 0.00, 0.00, 0.00
198, 19068.70, 52504.56, -187500.02, 53492.10, -187500.02, -187500.02, -187500.02, -187500.02, 0.00, 0.00, 0.00
199, 19196.30, 52740.35, -187500.02, 53360.95, -187500.02, -187500.02, -187500.02, -187500.02, 0.00, 0.00, 0.00
200, 19252.29, 52873.65, -187500.02, 53512.73, -187500.02, -187500.02, -187500.02, -187500.02, 0.00, 0.00, 0.00
201, 19133.18, 52654.32, -187500.02, 53629.52, -187500.02, -187500.02, -187500.02, -187500.02, 0.00, 0.00, 0.00
202, 19013.58, 52418.39, -187500.02, 53538.44, -187500.02, -187500.02, -187500.02, -187500.02, 0.00, 0.00, 0.00
203, 19054.79, 52485.14, -187500.02, 53483.18, -187500.02, -187500.02, -187500.02, -187500.02, 0.00, 0.00, 0.00
204, 19172.39, 52713.86, -187500.02, 53419.04, -187500.02, -187500.02, -187500.02, -187500.02, 0.00, 0.00, 0.00
205, 19231.87, 52846.27, -187500.02, 53458.98, -187500.02, -187500.02, -187500.02, -187500.02, 0.00, 0.00, 0.00
206, 19127.79, 52658.54, -187500.02, 53528.94, -187500.02, -187500.02, -187500.02, -187500.02, -3.57, -0.02, 1.07
207, 19012.73, 52424.76, -187500.02, 53510.61, -187500.02, -187500.02, -187500.02, -187500.02, 0.00, 0.00, 0.00
208, 19050.53, 52480.62, -187500.02, 53476.64, -187500.02, -187500.02, -187500.02, -187500.02, 0.00, 0.00, 0.00
209, 19182.63, 52724.66, -187500.02, 53390.52, -187500.02, -187500.02, -187500.02, -187500.02, 0.00, 0.00, 0.00
210, 19244.94, 52865.20, -187500.02, 53354.93, -187500.02, -187500.02, -187500.02, -187500.02, 0.00, 0.00, 0.00
211, 19137.21, 52664.39, -187500.02, 53415.06, -187500.02, -187500.02, -187500.02, -187500.02, 0.00, 0.00, 0.00
212, 19020.87, 52434.48, -187500.02, 53556.77, -187500.02, -187500.02, -187500.02, -187500.02, 0.00, 0.00, 0.00
213, 19050.53, 52482.63, -187500.02, 53335.69, -187500.02, -187500.02, -187500.02, -187500.02, 0.00, 0.00, 0.00
214, 19160.12, 52699.78, -187500.02, 53255.73, -187500.02, -187500.02, -187500.02, -187500.02, 0.00, 0.00, 0.00
215, 19220.58, 52836.66, -187500.02, 53340.74, -187500.02, -187500.02, -187500.02, -187500.02, 0.00, 0.00, 0.00
216, 19123.32, 52651.95, -187500.02, 53612.80, -187500.02, -187500.02, -187500.02, -187500.02, 0.00, 0.00, 0.00
217, 19039.86, 52457.29, -187500.02, 53584.26, -187500.02, -187500.02, -187500.02, -187500.02, -3.57, -0.03, 1.07
218, 19067.40, 52498.90, -187500.02, 53511.10, -187500.02, -187500.02, -187500.02, -187500.02, 0.00, 0.00, 0.00
219, 19169.97, 52713.48, -187500.02, 53338.57, -187500.02, -187500.02, -187500.02, -187500.02, 0.00, 0.00, 0.00
220, 19227.48, 52847.32, -187500.02, 53325.11, -187500.02, -187500.02, -187500.02, -187500.02, 0.00, 0.00, 0.00
221, 19118.54, 52649.00, -187500.02, 53415.50, -187500.02, -187500.02, -187500.02, -187500.02, 0.00, 0.00, 0.00
222, 19029.78, 52454.58, -187500.02, 53446.11, -187500.02, -187500.02, -187500.02, -187500.02, 0.00, 0.00, 0.00
223, 19072.05, 52503.31, -187500.02, 53419.35, -187500.02, -187500.02, -187500.02, -187500.02, 0.00, 0.00, 0.00
224, 19185.08, 52718.38, -187500.02, 53281.62, -187500.02, -187500.02, -187500.02, -187500.02, 0.00, 0.00, 0.00
225, 19243.78, 52860.89, -187500.02, 53292.77, -187500.02, -187500.02, -187500.02, -187500.02, 0.00, 0.00, 0.00
226, 19143.49, 52676.06, -187500.02, 53369.77, -187500.02, -187500.02, -187500.02, -187500.02, 0.00, 0.00, 0.00
227, 19035.55, 52450.54, -187500.02, 53351.04, -187500.02, -187500.02, -187500.02, -187500.02, -3.57, -0.03, 1.07
228, 19051.46, 52478.63, -187500.02, 53251.58, -187500.02, -187500.02, -187500.02, -187500.02, 0.00, 0.00, 0.00
229, 19163.02, 52698.44, -187500.02, 53180.63, -187500.02, -187500.02, -187500.02, -187500.02, 0.00, 0.00, 0.00
230, 19230.52, 52842.90, -187500.02, 53264.00, -187500.02, -187500.02, -187500.02, -187500.02, 0.00, 0.00, 0.00
231, 19132.71, 52659.05, -187500.02, 53296.28, -187500.02, -187500.02, -187500.02, -187500.02, 0.00, 0.00, 0.00
232, 19035.06, 52455.54, -187500.02, 53299.70, -187500.02, -187500.02, -187500.02, -187500.02, 0.00, 0.00, 0.00
233, 19072.74, 52495.71, -187500.02, 53217.00, -187500.02, -187500.02, -187500.02, -187500.02, 0.00, 0.00, 0.00
234, 19166.15, 52696.36, -187500.02, 53085.12, -187500.02, -187500.02, -187500.02, -187500.02, 0.00, 0.00, 0.00
235, 19230.43, 52845.38, -187500.02, 53154.70, -187500.02, -187500.02, -187500.02, -187500.02, 0.00, 0.00, 0.00
236, 19126.65, 52663.43, -187500.02, 53141.61, -187500.02, -187500.02, -187500.02, -187500.02, 0.00, 0.00, 0.00
237, 19010.27, 52432.27, -187500.02, 53167.85, -187500.02, -187500.02, -187500.02, -187500.02, -3.57, -0.03, 1.07
238, 19046.08, 52468.37, -187500.02, 53352.00, -187500.02, -187500.02, -187500.02, -187500.02, 0.00, 0.00, 0.00
239, 19177.60, 52704.23, -187500.02, 53209.29, -187500.02, -187500.02, -187500.02, -187500.02, 0.00, 0.00, 0.00
240, 19247.00, 52864.18, -187500.02, 53105.08, -187500.02, -187500.02, -187500.02, -187500.02, 0.00, 0.00, 0.00
241, 19141.05, 52677.05, -187500.02, 53108.73, -187500.02, -187500.02, -187500.02, -187500.02, 0.00, 0.00, 0.00
242, 19030.19, 52454.58, -187500.02, 53276.30, -187500.02, -187500.02, -187500.02, -187500.02, 0.00, 0.00, 0.00
243, 19052.09, 52473.47, -187500.02, 53359.60, -187500.02, -187500.02, -187500.02, -187500.02, 0.00, 0.00, 0.00
244, 19187.99, 52710.38, -187500.02, 53218.34, -187500.02, -187500.02, -187500.02, -187500.02, 0.00, 0.00, 0.00
245, 19256.23, 52867.04, -187500.02, 53222.54, -187500.02, -187500.02, -187500.02, -187500.02, 0.00, 0.00, 0.00
246, 19156.70, 52690.08, -187500.02, 53324.71, -187500.02, -187500.02, -187500.02, -187500.02, 0.00, 0.00, 0.00
247, 19035.50, 52458.98, -187500.02, 53353.30, -187500.02, -187500.02, -187500.02, -187500.02, 0.00, 0.00, 0.00
248, 19037.83, 52453.57, -187500.02, 53301.82, -187500.02, -187500.02, -187500.02, -187500.02, -3.57, -0.03, 1.07
249, 19166.60, 52688.13, -187500.02, 53216.46, -187500.02, -187500.02, -187500.02, -187500.02, 0.00, 0.00, 0.00
250, 19234.59, 52849.29, -187500.02, 53303.66, -187500.02, -187500.02, -187500.02, -187500.02, 0.00, 0.00, 0.00
251, 19135.91, 52674.77, -187500.02, 53416.40, -187500.02, -187500.02, -187500.02, -187500.02, 0.00, 0.00, 0.00
252, 19036.33, 52465.31, -187500.02, 53469.04, -187500.02, -187500.02, -187500.02, -187500.02, 0.00, 0.00, 0.00
253, 19058.57, 52475.57, -187500.02, 53409.36, -187500.02, -187500.02, -187500.02, -187500.02, 0.00, 0.00, 0.00
254, 19180.19, 52701.54, -187500.02, 53280.77, -187500.02, -187500.02, -187500.02, -187500.02, 0.00, 0.00, 0.00
255, 19248.27, 52860.82, -187500.02, 53454.11, -187500.02, -187500.02, -187500.02, -187500.02, 0.00, 0.00, 0.00
0, 19144.80, 52685.72, -187500.02, 53559.72, -187500.02, -187500.02, -187500.02, -187500.02, 0.00, 0.00, 0.00
1, 19031.08, 52458.31, -187500.02, 53520.31, -187500.02, -187500.02, -187500.02, -187500.02, 0.00, 0.00, 0.00
2, 19048.22, 52460.84, -187500.02, 53457.35, -187500.02, -187500.02, -187500.02, -187500.02, -3.57, -0.03, 1.07
3, 19161.08, 52682.12, -187500.02, 53368.81, -187500.02, -187500.02, -187500.02, -187500.02, 0.00, 0.00, 0.00
4, 19237.90, 52850.96, -187500.02, 53424.64, -187500.02, -187500.02, -187500.02, -187500.02, 0.00, 0.00, 0.00
5, 19149.28, 52691.24, -187500.02, 53403.48, -187500.02, -187500.02, -187500.02, -187500.02, 0.00, 0.00, 0.00
6, 19032.24, 52463.86, -187500.02, 53495.55, -187500.02, -187500.02, -187500.02, -187500.02, 0.00, 0.00, 0.00
7, 19033.96, 52451.90, -187500.02, 53555.54, -187500.02, -187500.02, -187500.02, -187500.02, 0.00, 0.00, 0.00
8, 19167.69, 52687.33, -187500.02, 53465.91, -187500.02, -187500.02, -187500.02, -187500.02, 0.00, 0.00, 0.00
9, 19246.19, 52860.60, -187500.02, 53467.90, -187500.02, -187500.02, -187500.02, -187500.02, 0.00, 0.00, 0.00
10, 19149.50, 52693.59, -187500.02, 53523.98, -187500.02, -187500.02, -187500.02, -187500.02, 0.00, 0.00, 0.00
11, 19041.94, 52472.64, -187500.02, 53529.88, -187500.02, -187500.02, -187500.02, -187500.02, 0.00, 0.00, 0.00
12, 19029.00, 52437.70, -187500.02, 53499.10, -187500.02, -187500.02, -187500.02, -187500.02, -3.57, -0.03, 1.07
13, 19150.10, 52665.83, -187500.02, 53398.83, -187500.02, -187500.02, -187500.02, -187500.02, 0.00, 0.00, 0.00
14, 19239.31, 52856.62, -187500.02, 53436.16, -187500.02, -187500.02, -187500.02, -187500.02, 0.00, 0.00, 0.00
15, 19171.87, 52719.80, -187500.02, 53538.10, -187500.02, -187500.02, -187500.02, -187500.02, 0.00, 0.00, 0.00
16, 19078.35, 52512.72, -187500.02, 53562.63, -187500.02, -187500.02, -187500.02, -187500.02, 0.00, 0.00, 0.00
17, 19036.55, 52446.76, -187500.02, 53457.05, -187500.02, -187500.02, -187500.02, -187500.02, 0.00, 0.00, 0.00
18, 19130.50, 52642.67, -187500.02, 53297.91, -187500.02, -187500.02, -187500.02, -187500.02, 0.00, 0.00, 0.00
19, 19233.61, 52848.64, -187500.02, 53343.87, -187500.02, -187500.02, -187500.02, -187500.02, 0.00, 0.00, 0.00
20, 19161.39, 52707.20, -187500.02, 53467.96, -187500.02, -187500.02, -187500.02, -187500.02, 0.00, 0.00, 0.00
21, 19050.32, 52480.80, -187500.02, 53502.81, -187500.02, -187500.02, -187500.02, -187500.02, 0.00, 0.00, 0.00
22, 19041.65, 52449.37, -187500.02, 53479.36, -187500.02, -187500.02, -187500.02, -187500.02, 0.00, 0.00, 0.00
23, 19142.19, 52655.63, -187500.02, 53384.57, -187500.02, -187500.02, -187500.02, -187500.02, -3.57, -0.03, 1.07
24, 19225.27, 52841.78, -187500.02, 53456.61, -187500.02, -187500.02, -187500.02, -187500.02, 0.00, 0.00, 0.00
25, 19157.50, 52707.65, -187500.02, 53494.41, -187500.02, -187500.02, -187500.02, -187500.02, 0.00, 0.00, 0.00
26, 19057.39, 52491.71, -187500.02, 53494.83, -187500.02, -187500.02, -187500.02, -187500.02, 0.00, 0.00, 0.00
27, 19038.57, 52448.77, -187500.02, 53491.32, -187500.02, -187500.02, -187500.02, -187500.02, 0.00, 0.00, 0.00
28, 19159.13, 52676.67, -187500.02, 53429.05, -187500.02, -187500.02, -187500.02, -187500.02, 0.00, 0.00, 0.00
29, 19248.81, 52864.20, -187500.02, 53407.95, -187500.02, -187500.02, -187500.02, -187500.02, 0.00, 0.00, 0.00
30, 19155.78, 52699.64, -187500.02, 53431.44, -187500.02, -187500.02, -187500.02, -187500.02, 0.00, 0.00, 0.00
31, 19037.18, 52474.85, -187500.02, 53514.52, -187500.02, -187500.02, -187500.02, -187500.02, 0.00, 0.00, 0.00
32, 19032.98, 52443.45, -187500.02, 53481.91, -187500.02, -187500.02, -187500.02, -187500.02, 0.00, 0.00, 0.00
33, 19157.99, 52672.58, -187500.02, 53362.48, -187500.02, -187500.02, -187500.02, -187500.02, -3.57, -0.03, 1.06
34, 19246.26, 52863.02, -187500.02, 53413.96, -187500.02, -187500.02, -187500.02, -187500.02, 0.00, 0.00, 0.00
35, 19184.79, 52736.46, -187500.02, 53403.32, -187500.02, -187500.02, -187500.02, -187500.02, 0.00, 0.00, 0.00
36, 19059.69, 52501.74, -187500.02, 53408.55, -187500.02, -187500.02, -187500.02, -187500.02, 0.00, 0.00, 0.00
37, 19046.99, 52452.48, -187500.02, 53596.04, -187500.02, -187500.02, -187500.02, -187500.02, 0.00, 0.00, 0.00
38, 19160.21, 52676.06, -187500.02, 53473.48, -187500.02, -187500.02, -187500.02, -187500.02, 0.00, 0.00, 0.00
39, 19232.24, 52852.40, -187500.02, 53450.02, -187500.02, -187500.02, -187500.02, -187500.02, 0.00, 0.00, 0.00
40, 19160.99, 52722.36, -187500.02, 53528.47, -187500.02, -187500.02, -187500.02, -187500.02, 0.00, 0.00, 0.00
41, 19074.15, 52528.39, -187500.02, 53564.57, -187500.02, -187500.02, -187500.02, -187500.02, 0.00, 0.00, 0.00
42, 19065.39, 52488.67, -187500.02, 53459.63, -187500.02, -187500.02, -187500.02, -187500.02, 0.00, 0.00, 0.00
43, 19183.47, 52710.89, -187500.02, 53354.53, -187500.02, -187500.02, -187500.02, -187500.02, 0.00, 0.00, 0.00
44, 19261.64, 52892.70, -187500.02, 53491.48, -187500.02, -187500.02, -187500.02, -187500.02, -3.57, -0.03, 1.06
45, 19199.28, 52773.50, -187500.02, 53524.74, -187500.02, -187500.02, -187500.02, -187500.02, 0.00, 0.00, 0.00
46, 19095.52, 52558.65, -187500.02, 53552.61, -187500.02, -187500.02, -187500.02, -187500.02, 0.00, 0.00, 0.00
47, 19068.36, 52486.19, -187500.02, 53522.57, -187500.02, -187500.02, -187500.02, -187500.02, 0.00, 0.00, 0.00
48, 19177.42, 52701.03, -187500.02, 53387.79, -187500.02, -187500.02, -187500.02, -187500.02, 0.00, 0.00, 0.00
49, 19266.44, 52902.64, -187500.02, 53448.27, -187500.02, -187500.02, -187500.02, -187500.02, 0.00, 0.00, 0.00
50, 19205.82, 52789.03, -187500.02, 53514.39, -187500.02, -187500.02, -187500.02, -187500.02, 0.00, 0.00, 0.00
51, 19096.39, 52571.55, -187500.02, 53577.04, -187500.02, -187500.02, -187500.02, -187500.02, 0.00, 0.00, 0.00
52, 19069.90, 52503.02, -187500.02, 53537.43, -187500.02, -187500.02, -187500.02, -187500.02, 0.00, 0.00, 0.00
53, 19187.99, 52712.32, -187500.02, 53399.72, -187500.02, -187500.02, -187500.02, -187500.02, 0.00, 0.00, 0.00
54, 19283.21, 52906.49, -187500.02, 53422.03, -187500.02, -187500.02, -187500.02, -187500.02, -3.57, -0.02, 1.06
55, 19196.53, 52771.17, -187500.02, 53463.96, -187500.02, -187500.02, -187500.02, -187500.02, 0.00, 0.00, 0.00
56, 19078.08, 52541.64, -187500.02, 53551.11, -187500.02, -187500.02, -187500.02, -187500.02, 0.00, 0.00, 0.00
57, 19055.96, 52472.42, -187500.02, 53564.46, -187500.02, -187500.02, -187500.02, -187500.02, 0.00, 0.00, 0.00
58, 19168.27, 52689.43, -187500.02, 53435.15, -187500.02, -187500.02, -187500.02, -187500.02, 0.00, 0.00, 0.00
59, 19260.95, 52891.40, -187500.02, 53439.09, -187500.02, -187500.02, -187500.02, -187500.02, 0.00, 0.00, 0.00
60, 19205.60, 52789.59, -187500.02, 53458.98, -187500.02, -187500.02, -187500.02, -187500.02, 0.00, 0.00, 0.00
61, 19114.74, 52592.34, -187500.02, 53504.35, -187500.02, -187500.02, -187500.02, -187500.02, 0.00, 0.00, 0.00
62, 19091.83, 52517.16, -187500.02, 53519.64, -187500.02, -187500.02, -187500.02, -187500.02, 0.00, 0.00, 0.00
63, 19196.24, 52714.09, -187500.02, 53518.66, -187500.02, -187500.02, -187500.02, -187500.02, 0.00, 0.00, 0.00
64, 19287.99, 52906.11, -187500.02, 53516.13, -187500.02, -187500.02, -187500.02, -187500.02, -3.57, -0.02, 1.07
65, 19223.26, 52797.01, -187500.02, 53499.64, -187500.02, -187500.02, -187500.02, -187500.02, 0.00, 0.00, 0.00
66, 19100.55, 52576.20, -187500.02, 53526.79, -187500.02, -187500.02, -187500.02, -187500.02, 0.00, 0.00, 0.00
67, 19055.96, 52473.02, -187500.02, 53559.20, -187500.02, -187500.02, -187500.02, -187500.02, 0.00, 0.00, 0.00
68, 19172.99, 52690.19, -187500.02, 53460.07, -187500.02, -187500.02, -187500.02, -187500.02, 0.00, 0.00, 0.00
69, 19274.56, 52899.96, -187500.02, 53476.39, -187500.02, -187500.02, -187500.02, -187500.02, 0.00, 0.00, 0.00
70, 19218.97, 52803.94, -187500.02, 53502.88, -187500.02, -187500.02, -187500.02, -187500.02, 0.00, 0.00, 0.00
71, 19115.93, 52587.46, -187500.02, 53535.64, -187500.02, -187500.02, -187500.02, -187500.02, 0.00, 0.00, 0.00
72, 19079.49, 52491.24, -187500.02, 53480.97, -187500.02, -187500.02, -187500.02, -187500.02, 0.00, 0.00, 0.00
73, 19186.98, 52700.85, -187500.02, 53372.12, -187500.02, -187500.02, -187500.02, -187500.02, 0.00, 0.00, 0.00
74, 19287.05, 52918.00, -187500.02, 53396.48, -187500.02, -187500.02, -187500.02, -187500.02, 0.00, 0.00, 0.00
75, 19241.12, 52835.54, -187500.02, 53646.96, -187500.02, -187500.02, -187500.02, -187500.02, -3.57, -0.03, 1.07
76, 19113.98, 52590.77, -187500.02, 53646.71, -187500.02, -187500.02, -187500.02, -187500.02, 0.00, 0.00, 0.00
77, 19048.22, 52458.98, -187500.02, 53458.02, -187500.02, -187500.02, -187500.02, -187500.02, 0.00, 0.00, 0.00
78, 19166.80, 52677.92, -187500.02, 53385.55, -187500.02, -187500.02, -187500.02, -187500.02, 0.00, 0.00, 0.00
79, 19274.82, 52896.43, -187500.02, 53475.72, -187500.02, -187500.02, -187500.02, -187500.02, 0.00, 0.00, 0.00
80, 19226.43, 52814.18, -187500.02, 53546.24, -187500.02, -187500.02, -187500.02, -187500.02, 0.00, 0.00, 0.00
81, 19121.45, 52590.03, -187500.02, 53525.70, -187500.02, -187500.02, -187500.02, -187500.02, 0.00, 0.00, 0.00
82, 19073.57, 52484.98, -187500.02, 53486.76, -187500.02, -187500.02, -187500.02, -187500.02, 0.00, 0.00, 0.00
83, 19193.51, 52706.44, -187500.02, 53532.83, -187500.02, -187500.02, -187500.02, -187500.02, 0.00, 0.00, 0.00
84, 19298.56, 52923.43, -187500.02, 53534.55, -187500.02, -187500.02, -187500.02, -187500.02, 0.00, 0.00, 0.00
85, 19221.76, 52814.18, -187500.02, 53567.94, -187500.02, -187500.02, -187500.02, -187500.02, -3.57, -0.03, 1.07
86, 19105.04, 52587.57, -187500.02, 53589.94, -187500.02, -187500.02, -187500.02, -187500.02, 0.00, 0.00, 0.00
87, 19071.27, 52485.80, -187500.02, 53475.77, -187500.02, -187500.02, -187500.02, -187500.02, 0.00, 0.00, 0.00
88, 19192.01, 52709.17, -187500.02, 53357.50, -187500.02, -187500.02, -187500.02, -187500.02, 0.00, 0.00, 0.00
89, 19304.69, 52936.15, -187500.02, 53456.72, -187500.02, -187500.02, -187500.02, -187500.02, 0.00, 0.00, 0.00
90, 19249.59, 52842.03, -187500.02, 53559.72, -187500.02, -187500.02, -187500.02, -187500.02, 0.00, 0.00, 0.00
91, 19113.60, 52587.11, -187500.02, 53513.18, -187500.02, -187500.02, -187500.02, -187500.02, 0.00, 0.00, 0.00
92, 19069.05, 52472.93, -187500.02, 53483.54, -187500.02, -187500.02, -187500.02, -187500.02, 0.00, 0.00, 0.00
93, 19184.81, 52683.42, -187500.02, 53537.50, -187500.02, -187500.02, -187500.02, -187500.02, 0.00, 0.00, 0.00
94, 19298.65, 52905.79, -187500.02, 53513.96, -187500.02, -187500.02, -187500.02, -187500.02, 0.00, 0.00, 0.00
95, 19259.92, 52841.38, -187500.02, 53471.56, -187500.02, -187500.02, -187500.02, -187500.02, -3.57, -0.03, 1.07
96, 19120.38, 52588.15, -187500.02, 53609.94, -187500.02, -187500.02, -187500.02, -187500.02, 0.00, 0.00, 0.00
97, 19068.16, 52469.11, -187500.02, 53596.08, -187500.02, -187500.02, -187500.02, -187500.02, 0.00, 0.00, 0.00
98, 19194.96, 52694.64, -187500.02, 53400.62, -187500.02, -187500.02, -187500.02, -187500.02, 0.00, 0.00, 0.00
99, 19303.57, 52913.98, -187500.02, 53474.00, -187500.02, -187500.02, -187500.02, -187500.02, 0.00, 0.00, 0.00
100, 19240.47, 52825.53, -187500.02, 53530.62, -187500.02, -187500.02, -187500.02, -187500.02, 0.00, 0.00, 0.00
101, 19124.46, 52599.55, -187500.02, 53548.81, -187500.02, -187500.02, -187500.02, -187500.02, 0.00, 0.00, 0.00
102, 19068.92, 52470.11, -187500.02, 53523.22, -187500.02, -187500.02, -187500.02, -187500.02, 0.00, 0.00, 0.00
103, 19189.29, 52684.13, -187500.02, 53424.31, -187500.02, -187500.02, -187500.02, -187500.02, 0.00, 0.00, 0.00
104, 19293.00, 52903.16, -187500.02, 53498.50, -187500.02, -187500.02, -187500.02, -187500.02, 0.00, 0.00, 0.00
105, 19239.02, 52831.99, -187500.02, 53553.84, -187500.02, -187500.02, -187500.02, -187500.02, 0.00, 0.00, 0.00
106, 19115.19, 52598.35, -187500.02, 53546.69, -187500.02, -187500.02, -187500.02, -187500.02, -3.56, -0.03, 1.07
107, 19083.88, 52485.74, -187500.02, 53511.68, -187500.02, -187500.02, -187500.02, -187500.02, 0.00, 0.00, 0.00
108, 19191.19, 52683.82, -187500.02, 53442.01, -187500.02, -187500.02, -187500.02, -187500.02, 0.00, 0.00, 0.00
109, 19279.77, 52881.43, -187500.02, 53433.95, -187500.02, -187500.02, -187500.02, -187500.02, 0.00, 0.00, 0.00
110, 19242.82, 52838.00, -187500.02, 53489.11, -187500.02, -187500.02, -187500.02, -187500.02, 0.00, 0.00, 0.00
111, 19134.48, 52625.08, -187500.02, 53618.39, -187500.02, -187500.02, -187500.02, -187500.02, 0.00, 0.00, 0.00
112, 19075.02, 52485.49, -187500.02, 53558.09, -187500.02, -187500.02, -187500.02, -187500.02, 0.00, 0.00, 0.00
113, 19197.85, 52690.64, -187500.02, 53465.28, -187500.02, -187500.02, -187500.02, -187500.02, 0.00, 0.00, 0.00
114, 19300.08, 52900.39, -187500.02, 53454.64, -187500.02, -187500.02, -187500.02, -187500.02, 0.00, 0.00, 0.00
115, 19244.20, 52835.59, -187500.02, 53442.86, -187500.02, -187500.02, -187500.02, -187500.02, 0.00, 0.00, 0.00
116, 19123.12, 52609.21, -187500.02, 53520.40, -187500.02, -187500.02, -187500.02, -187500.02, -3.57, -0.03, 1.07
117, 19071.16, 52474.43, -187500.02, 53537.32, -187500.02, -187500.02, -187500.02, -187500.02, 0.00, 0.00, 0.00
118, 19176.75, 52667.82, -187500.02, 53423.95, -187500.02, -187500.02, -187500.02, -187500.02, 0.00, 0.00, 0.00
119, 19283.59, 52890.28, -187500.02, 53382.29, -187500.02, -187500.02, -187500.02, -187500.02, 0.00, 0.00, 0.00
120, 19250.21, 52844.39, -187500.02, 53403.37, -187500.02, -187500.02, -187500.02, -187500.02, 0.00, 0.00, 0.00
121, 19130.25, 52619.92, -187500.02, 53522.61, -187500.02, -187500.02, -187500.02, -187500.02, 0.00, 0.00, 0.00
122, 19080.54, 52483.82, -187500.02, 53437.10, -187500.02, -187500.02, -187500.02, -187500.02, 0.00, 0.00, 0.00
123, 19196.42, 52684.33, -187500.02, 53375.09, -187500.02, -187500.02, -187500.02, -187500.02, 0.00, 0.00, 0.00
124, 19282.98, 52889.07, -187500.02, 53314.18, -187500.02, -187500.02, -187500.02, -187500.02, 0.00, 0.00, 0.00
125, 19248.54, 52849.76, -187500.02, 53276.41, -187500.02, -187500.02, -187500.02, -187500.02, 0.00, 0.00, 0.00
126, 19142.99, 52632.86, -187500.02, 53545.59, -187500.02, -187500.02, -187500.02, -187500.02, -3.56, -0.03, 1.07
127, 19082.49, 52485.83, -187500.02, 53558.71, -187500.02, -187500.02, -187500.02, -187500.02, 0.00, 0.00, 0.00
128, 19170.40, 52663.91, -187500.02, 53354.15, -187500.02, -187500.02, -187500.02, -187500.02, 0.00, 0.00, 0.00
129, 19271.76, 52876.78, -187500.02, 53288.61, -187500.02, -187500.02, -187500.02, -187500.02, 0.00, 0.00, 0.00
130, 19258.33, 52850.05, -187500.02, 53322.99, -187500.02, -187500.02, -187500.02, -187500.02, 0.00, 0.00, 0.00
131, 19153.57, 52638.98, -187500.02, 53507.39, -187500.02, -187500.02, -187500.02, -187500.02, 0.00, 0.00, 0.00
132, 19074.49, 52477.11, -187500.02, 53532.88, -187500.02, -187500.02, -187500.02, -187500.02, 0.00, 0.00, 0.00
133, 19171.34, 52660.35, -187500.02, 53481.42, -187500.02, -187500.02, -187500.02, -187500.02, 0.00, 0.00, 0.00
134, 19275.79, 52873.83, -187500.02, 53402.14, -187500.02, -187500.02, -187500.02, -187500.02, 0.00, 0.00, 0.00
135, 19247.22, 52848.60, -187500.02, 53432.36, -187500.02, -187500.02, -187500.02, -187500.02, 0.00, 0.00, 0.00
136, 19137.29, 52638.33, -187500.02, 53577.53, -187500.02, -187500.02, -187500.02, -187500.02, 0.00, 0.00, 0.00
137, 19074.71, 52489.58, -187500.02, 53574.54, -187500.02, -187500.02, -187500.02, -187500.02, -3.56, -0.03, 1.08
138, 19178.87, 52667.48, -187500.02, 53476.34, -187500.02, -187500.02, -187500.02, -187500.02, 0.00, 0.00, 0.00
139, 19285.73, 52883.76, -187500.02, 53435.20, -187500.02, -187500.02, -187500.02, -187500.02, 0.00, 0.00, 0.00
140, 19246.73, 52845.09, -187500.02, 53492.39, -187500.02, -187500.02, -187500.02, -187500.02, 0.00, 0.00, 0.00
141, 19131.01, 52623.89, -187500.02, 53630.39, -187500.02, -187500.02, -187500.02, -187500.02, 0.00, 0.00, 0.00
142, 19055.78, 52466.00, -187500.02, 53532.27, -187500.02, -187500.02, -187500.02, -187500.02, 0.00, 0.00, 0.00
143, 19162.62, 52648.97, -187500.02, 53414.86, -187500.02, -187500.02, -187500.02, -187500.02, 0.00, 0.00, 0.00
144, 19267.09, 52863.21, -187500.02, 53445.99, -187500.02, -187500.02, -187500.02, -187500.02, 0.00, 0.00, 0.00
145, 19249.90, 52851.28, -187500.02, 53550.33, -187500.02, -187500.02, -187500.02, -187500.02, 0.00, 0.00, 0.00
146, 19142.10, 52643.23, -187500.02, 53623.06, -187500.02, -187500.02, -187500.02, -187500.02, 0.00, 0.00, 0.00
147, 19065.43, 52479.52, -187500.02, 53514.28, -187500.02, -187500.02, -187500.02, -187500.02, -3.57, -0.03, 1.08
148, 19159.33, 52643.50, -187500.02, 53400.39, -187500.02, -187500.02, -187500.02, -187500.02, 0.00, 0.00, 0.00
149, 19277.57, 52868.98, -187500.02, 53416.75, -187500.02, -187500.02, -187500.02, -187500.02, 0.00, 0.00, 0.00
150, 19268.86, 52875.87, -187500.02, 53412.46, -187500.02, -187500.02, -187500.02, -187500.02, 0.00, 0.00, 0.00
151, 19143.71, 52649.78, -187500.02, 53611.62, -187500.02, -187500.02, -187500.02, -187500.02, 0.00, 0.00, 0.00
152, 19046.17, 52460.91, -187500.02, 53678.29, -187500.02, -187500.02, -187500.02, -187500.02, 0.00, 0.00, 0.00
153, 19147.49, 52632.34, -187500.02, 53396.62, -187500.02, -187500.02, -187500.02, -187500.02, 0.00, 0.00, 0.00
154, 19255.85, 52846.43, -187500.02, 53376.66, -187500.02, -187500.02, -187500.02, -187500.02, 0.00, 0.00, 0.00
155, 19259.40, 52860.82, -187500.02, 53517.74, -187500.02, -187500.02, -187500.02, -187500.02, 0.00, 0.00, 0.00
156, 19153.57, 52650.56, -187500.02, 53534.75, -187500.02, -187500.02, -187500.02, -187500.02, 0.00, 0.00, 0.00
157, 19067.51, 52472.26, -187500.02, 53289.39, -187500.02, -187500.02, -187500.02, -187500.02, -3.57, -0.03, 1.07
158, 19155.80, 52638.78, -187500.02, 53035.28, -187500.02, -187500.02, -187500.02, -187500.02, 0.00, 0.00, 0.00
159, 19265.75, 52852.44, -187500.02, 52878.66, -187500.02, -187500.02, -187500.02, -187500.02, 0.00, 0.00, 0.00
160, 19258.66, 52868.16, -187500.02, 52831.90, -187500.02, -187500.02, -187500.02, -187500.02, 0.00, 0.00, 0.00
161, 19146.06, 52654.85, -187500.02, 52907.40, -187500.02, -187500.02, -187500.02, -187500.02, 0.00, 0.00, 0.00
162, 19074.22, 52484.33, -187500.02, 52973.39, -187500.02, -187500.02, -187500.02, -187500.02, 0.00, 0.00, 0.00
163, 19174.98, 52661.71, -187500.02, 53030.56, -187500.02, -187500.02, -187500.02, -187500.02, 0.00, 0.00, 0.00
164, 19248.18, 52834.96, -187500.02, 53139.95, -187500.02, -187500.02, -187500.02, -187500.02, 0.00, 0.00, 0.00
165, 19246.62, 52850.54, -187500.02, 53395.81, -187500.02, -187500.02, -187500.02, -187500.02, 0.00, 0.00, 0.00
166, 19135.48, 52642.45, -187500.02, 53579.97, -187500.02, -187500.02, -187500.02, -187500.02, 0.00, 0.00, 0.00
167, 19062.93, 52472.68, -187500.02, 53441.48, -187500.02, -187500.02, -187500.02, -187500.02, 0.00, 0.00, 0.00
168, 19165.21, 52643.59, -187500.02, 53445.07, -187500.02, -187500.02, -187500.02, -187500.02, -3.57, -0.03, 1.06
169, 19279.81, 52872.51, -187500.02, 53589.16, -187500.02, -187500.02, -187500.02, -187500.02, 0.00, 0.00, 0.00
170, 19269.17, 52885.52, -187500.02, 53529.70, -187500.02, -187500.02, -187500.02, -187500.02, 0.00, 0.00, 0.00
171, 19127.97, 52636.43, -187500.02, 53593.40, -187500.02, -187500.02, -187500.02, -187500.02, 0.00, 0.00, 0.00
172, 19057.57, 52468.91, -187500.02, 53557.71, -187500.02, -187500.02, -187500.02, -187500.02, 0.00, 0.00, 0.00
173, 19148.81, 52628.14, -187500.02, 53447.49, -187500.02, -187500.02, -187500.02, -187500.02, 0.00, 0.00, 0.00
174, 19256.77, 52842.61, -187500.02, 53392.93, -187500.02, -187500.02, -187500.02, -187500.02, 0.00, 0.00, 0.00
175, 19260.79, 52872.00, -187500.02, 53464.28, -187500.02, -187500.02, -187500.02, -187500.02, 0.00, 0.00, 0.00
176, 19155.91, 52662.03, -187500.02, 53570.89, -187500.02, -187500.02, -187500.02, -187500.02, 0.00, 0.00, 0.00
177, 19091.38, 52501.54, -187500.02, 53543.91, -187500.02, -187500.02, -187500.02, -187500.02, 0.00, 0.00, 0.00
178, 19172.12, 52646.87, -187500.02, 53424.45, -187500.02, -187500.02, -187500.02, -187500.02, -3.56, -0.03, 1.07
179, 19255.20, 52846.09, -187500.02, 53390.67, -187500.02, -187500.02, -187500.02, -187500.02, 0.00, 0.00, 0.00
180, 19267.78, 52884.52, -187500.02, 53392.32, -187500.02, -187500.02, -187500.02, -187500.02, 0.00, 0.00, 0.00
181, 19163.13, 52677.00, -187500.02, 53590.61, -187500.02, -187500.02, -187500.02, -187500.02, 0.00, 0.00, 0.00
182, 19064.43, 52481.09, -187500.02, 53663.96, -187500.02, -187500.02, -187500.02, -187500.02, 0.00, 0.00, 0.00
183, 19134.68, 52609.50, -187500.02, 53453.05, -187500.02, -187500.02, -187500.02, -187500.02, 0.00, 0.00, 0.00
184, 19258.40, 52842.90, -187500.02, 53362.08, -187500.02, -187500.02, -187500.02, -187500.02, 0.00, 0.00, 0.00
185, 19281.42, 52900.45, -187500.02, 53303.72, -187500.02, -187500.02, -187500.02, -187500.02, 0.00, 0.00, 0.00
186, 19161.95, 52678.88, -187500.02, 53524.74, -187500.02, -187500.02, -187500.02, -187500.02, 0.00, 0.00, 0.00
187, 19056.89, 52468.95, -187500.02, 53606.37, -187500.02, -187500.02, -187500.02, -187500.02, 0.00, 0.00, 0.00
188, 19137.92, 52614.91, -187500.02, 53328.02, -187500.02, -187500.02, -187500.02, -187500.02, -3.56, -0.04, 1.07
189, 19267.58, 52854.36, -187500.02, 53324.38, -187500.02, -187500.02, -187500.02, -187500.02, 0.00, 0.00, 0.00
190, 19285.96, 52905.59, -187500.02, 53465.24, -187500.02, -187500.02, -187500.02, -187500.02, 0.00, 0.00, 0.00
191, 19175.25, 52689.92, -187500.02, 53642.15, -187500.02, -187500.02, -187500.02, -187500.02, 0.00, 0.00, 0.00
192, 19081.53, 52495.08, -187500.02, 53604.71, -187500.02, -187500.02, -187500.02, -187500.02, 0.00, 0.00, 0.00
193, 19145.05, 52616.59, -187500.02, 53445.77, -187500.02, -187500.02, -187500.02, -187500.02, 0.00, 0.00, 0.00
194, 19255.36, 52834.18, -187500.02, 53344.87, -187500.02, -187500.02, -187500.02, -187500.02, 0.00, 0.00, 0.00
195, 19275.09, 52899.58, -187500.02, 53416.00, -187500.02, -187500.02, -187500.02, -187500.02, 0.00, 0.00, 0.00
196, 19148.92, 52676.82, -187500.02, 53492.73, -187500.02, -187500.02, -187500.02, -187500.02, 0.00, 0.00, 0.00
197, 19068.12, 52490.81, -187500.02, 53441.61, -187500.02, -187500.02, -187500.02, -187500.02, 0.00, 0.00, 0.00
198, 19150.68, 52620.79, -187500.02, 53387.39, -187500.02, -187500.02, -187500.02, -187500.02, 0.00, 0.00, 0.00
199, 19255.27, 52832.17, -187500.02, 53333.63, -187500.02, -187500.02, -187500.02, -187500.02, -3.56, -0.04, 1.07
200, 19279.92, 52898.51, -187500.02, 53373.68, -187500.02, -187500.02, -187500.02, -187500.02, 0.00, 0.00, 0.00
201, 19157.79, 52678.68, -187500.02, 53464.32, -187500.02, -187500.02, -187500.02, -187500.02, 0.00, 0.00, 0.00
202, 19059.94, 52477.94, -187500.02, 53479.90, -187500.02, -187500.02, -187500.02, -187500.02, 0.00, 0.00, 0.00
203, 19151.49, 52623.92, -187500.02, 53387.41, -187500.02, -187500.02, -187500.02, -187500.02, 0.00, 0.00, 0.00
204, 19269.59, 52844.60, -187500.02, 53289.26, -187500.02, -187500.02, -187500.02, -187500.02, 0.00, 0.00, 0.00
205, 19289.96, 52914.36, -187500.02, 53345.21, -187500.02, -187500.02, -187500.02, -187500.02, 0.00, 0.00, 0.00
206, 19172.54, 52699.02, -187500.02, 53356.68, -187500.02, -187500.02, -187500.02, -187500.02, 0.00, 0.00, 0.00
207, 19068.83, 52488.69, -187500.02, 53163.45, -187500.02, -187500.02, -187500.02, -187500.02, 0.00, 0.00, 0.00
208, 19143.66, 52610.08, -187500.02, 53377.37, -187500.02, -187500.02, -187500.02, -187500.02, 0.00, 0.00, 0.00
209, 19248.23, 52825.75, -187500.02, 53515.73, -187500.02, -187500.02, -187500.02, -187500.02, -3.56, -0.03, 1.07
210, 19292.86, 52914.76, -187500.02, 53356.47, -187500.02, -187500.02, -187500.02, -187500.02, 0.00, 0.00, 0.00
211, 19169.82, 52699.22, -187500.02, 53400.95, -187500.02, -187500.02, -187500.02, -187500.02, 0.00, 0.00, 0.00
212, 19072.16, 52492.69, -187500.02, 53397.62, -187500.02, -187500.02, -187500.02, -187500.02, 0.00, 0.00, 0.00
213, 19133.41, 52599.44, -187500.02, 53298.94, -187500.02, -187500.02, -187500.02, -187500.02, 0.00, 0.00, 0.00
214, 19240.63, 52817.93, -187500.02, 53130.68, -187500.02, -187500.02, -187500.02, -187500.02, 0.00, 0.00, 0.00
215, 19276.50, 52900.79, -187500.02, 53202.31, -187500.02, -187500.02, -187500.02, -187500.02, 0.00, 0.00, 0.00
216, 19163.63, 52696.63, -187500.02, 53386.89, -187500.02, -187500.02, -187500.02, -187500.02, 0.00, 0.00, 0.00
217, 19069.48, 52489.58, -187500.02, 53344.96, -187500.02, -187500.02, -187500.02, -187500.02, 0.00, 0.00, 0.00
218, 19147.60, 52606.73, -187500.02, 53200.30, -187500.02, -187500.02, -187500.02, -187500.02, 0.00, 0.00, 0.00
219, 19253.55, 52823.74, -187500.02, 53117.93, -187500.02, -187500.02, -187500.02, -187500.02, -3.57, -0.03, 1.06
220, 19278.67, 52906.62, -187500.02, 53145.99, -187500.02, -187500.02, -187500.02, -187500.02, 0.00, 0.00, 0.00
221, 19180.59, 52711.13, -187500.02, 53216.91, -187500.02, -187500.02, -187500.02, -187500.02, 0.00, 0.00, 0.00
222, 19072.94, 52488.64, -187500.02, 53206.56, -187500.02, -187500.02, -187500.02, -187500.02, 0.00, 0.00, 0.00
223, 19104.33, 52564.37, -187500.02, 53125.98, -187500.02, -187500.02, -187500.02, -187500.02, 0.00, 0.00, 0.00
224, 19202.18, 52761.58, -187500.02, 53135.59, -187500.02, -187500.02, -187500.02, -187500.02, 0.00, 0.00, 0.00
225, 19235.35, 52849.87, -187500.02, 53191.65, -187500.02, -187500.02, -187500.02, -187500.02, 0.00, 0.00, 0.00
226, 19126.86, 52643.41, -187500.02, 53191.90, -187500.02, -187500.02, -187500.02, -187500.02, 0.00, 0.00, 0.00
227, 19023.32, 52436.70, -187500.02, 53182.33, -187500.02, -187500.02, -187500.02, -187500.02, 0.00, 0.00, 0.00
228, 19087.23, 52542.56, -187500.02, 53259.04, -187500.02, -187500.02, -187500.02, -187500.02, 0.00, 0.00, 0.00
229, 19204.15, 52758.39, -187500.02, 53138.10, -187500.02, -187500.02, -187500.02, -187500.02, 0.00, 0.00, 0.00
230, 19241.59, 52853.52, -187500.02, 53198.02, -187500.02, -187500.02, -187500.02, -187500.02, -3.57, -0.02, 1.06
231, 19144.34, 52669.27, -187500.02, 53355.27, -187500.02, -187500.02, -187500.02, -187500.02, 0.00, 0.00, 0.00
232, 19036.13, 52456.01, -187500.02, 53285.71, -187500.02, -187500.02, -187500.02, -187500.02, 0.00, 0.00, 0.00
233, 19092.95, 52546.11, -187500.02, 53267.42, -187500.02, -187500.02, -187500.02, -187500.02, 0.00, 0.00, 0.00
234, 19201.20, 52758.70, -187500.02, 53171.73, -187500.02, -187500.02, -187500.02, -187500.02, 0.00, 0.00, 0.00
235, 19244.67, 52863.35, -187500.02, 53259.33, -187500.02, -187500.02, -187500.02, -187500.02, 0.00, 0.00, 0.00
236, 19139.44, 52661.89, -187500.02, 53399.01, -187500.02, -187500.02, -187500.02, -187500.02, 0.00, 0.00, 0.00
237, 19038.66, 52450.67, -187500.02, 53363.04, -187500.02, -187500.02, -187500.02, -187500.02, 0.00, 0.00, 0.00
238, 19090.04, 52550.09, -187500.02, 53364.68, -187500.02, -187500.02, -187500.02, -187500.02, 0.00, 0.00, 0.00
239, 19204.37, 52768.51, -187500.02, 53255.69, -187500.02, -187500.02, -187500.02, -187500.02, 0.00, 0.00, 0.00
240, 19257.23, 52883.20, -187500.02, 53357.25, -187500.02, -187500.02, -187500.02, -187500.02, -3.57, -0.03, 1.07
241, 19153.90, 52688.07, -187500.02, 53584.15, -187500.02, -187500.02, -187500.02, -187500.02, 0.00, 0.00, 0.00
242, 19041.61, 52458.56, -187500.02, 53518.86, -187500.02, -187500.02, -187500.02, -187500.02, 0.00, 0.00, 0.00
243, 19092.93, 52535.52, -187500.02, 53458.96, -187500.02, -187500.02, -187500.02, -187500.02, 0.00, 0.00, 0.00
244, 19213.36, 52769.52, -187500.02, 53375.09, -187500.02, -187500.02, -187500.02, -187500.02, 0.00, 0.00, 0.00
245, 19244.54, 52870.59, -187500.02, 53357.25, -187500.02, -187500.02, -187500.02, -187500.02, 0.00, 0.00, 0.00
246, 19136.54, 52664.51, -187500.02, 53515.46, -187500.02, -187500.02, -187500.02, -187500.02, 0.00, 0.00, 0.00
247, 19041.43, 52459.48, -187500.02, 53521.32, -187500.02, -187500.02, -187500.02, -187500.02, 0.00, 0.00, 0.00
248, 19098.78, 52546.45, -187500.02, 53418.72, -187500.02, -187500.02, -187500.02, -187500.02, 0.00, 0.00, 0.00
249, 19216.22, 52772.54, -187500.02, 53386.00, -187500.02, -187500.02, -187500.02, -187500.02, 0.00, 0.00, 0.00
250, 19249.72, 52868.60, -187500.02, 53402.03, -187500.02, -187500.02, -187500.02, -187500.02, 0.00, 0.00, 0.00
251, 19121.67, 52659.30, -187500.02, 53547.83, -187500.02, -187500.02, -187500.02, -187500.02, -3.56, -0.03, 1.08
252, 19044.29, 52474.43, -187500.02, 53524.11, -187500.02, -187500.02, -187500.02, -187500.02, 0.00, 0.00, 0.00
253, 19104.68, 52554.71, -187500.02, 53446.98, -187500.02, -187500.02, -187500.02, -187500.02, 0.00, 0.00, 0.00
254, 19217.34, 52770.90, -187500.02, 53386.76, -187500.02, -187500.02, -187500.02, -187500.02, 0.00, 0.00, 0.00
255, 19263.31, 52884.09, -187500.02, 53352.11, -187500.02, -187500.02, -187500.02, -187500.02, 0.00, 0.00, 0.00
0, 19133.41, 52666.32, -187500.02, 53487.61, -187500.02, -187500.02, -187500.02, -187500.02, 0.00, 0.00, 0.00
1, 19037.99, 52461.87, -187500.02, 53537.32, -187500.02, -187500.02, -187500.02, -187500.02, 0.00, 0.00, 0.00
2, 19088.63, 52536.25, -187500.02, 53503.79, -187500.02, -187500.02, -187500.02, -187500.02, 0.00, 0.00, 0.00
3, 19215.71, 52767.46, -187500.02, 53476.84, -187500.02, -187500.02, -187500.02, -187500.02, 0.00, 0.00, 0.00
4, 19276.72, 52903.07, -187500.02, 53487.81, -187500.02, -187500.02, -187500.02, -187500.02, 0.00, 0.00, 0.00
5, 19166.38, 52702.33, -187500.02, 53568.26, -187500.02, -187500.02, -187500.02, -187500.02, -3.56, -0.03, 1.07
6, 19048.67, 52483.26, -187500.02, 53470.69, -187500.02, -187500.02, -187500.02, -187500.02, 0.00, 0.00, 0.00
7, 19088.21, 52530.53, -187500.02, 53435.62, -187500.02, -187500.02, -187500.02, -187500.02, 0.00, 0.00, 0.00
8, 19229.03, 52755.68, -187500.02, 53351.80, -187500.02, -187500.02, -187500.02, -187500.02, 0.00, 0.00, 0.00
9, 19271.54, 52894.95, -187500.02, 53394.32, -187500.02, -187500.02, -187500.02, -187500.02, 0.00, 0.00, 0.00
10, 19143.08, 52682.10, -187500.02, 53423.13, -187500.02, -187500.02, -187500.02, -187500.02, 0.00, 0.00, 0.00
11, 19027.84, 52450.02, -187500.02, 53403.61, -187500.02, -187500.02, -187500.02, -187500.02, 0.00, 0.00, 0.00
12, 19056.02, 52492.15, -187500.02, 53423.53, -187500.02, -187500.02, -187500.02, -187500.02, 0.00, 0.00, 0.00
13, 19186.24, 52738.36, -187500.02, 53357.97, -187500.02, -187500.02, -187500.02, -187500.02, 0.00, 0.00, 0.00
14, 19258.42, 52883.91, -187500.02, 53399.01, -187500.02, -187500.02, -187500.02, -187500.02, 0.00, 0.00, 0.00
15, 19148.76, 52689.09, -187500.02, 53480.30, -187500.02, -187500.02, -187500.02, -187500.02, -3.56, -0.02, 1.08
16, 19057.43, 52492.36, -187500.02, 53519.33, -187500.02, -187500.02, -187500.02, -187500.02, 0.00, 0.00, 0.00
17, 19098.94, 52538.11, -187500.02, 53435.29, -187500.02, -187500.02, -187500.02, -187500.02, 0.00, 0.00, 0.00
18, 19209.29, 52749.63, -187500.02, 53379.00, -187500.02, -187500.02, -187500.02, -187500.02, 0.00, 0.00, 0.00
19, 19264.12, 52882.55, -187500.02, 53467.61, -187500.02, -187500.02, -187500.02, -187500.02, 0.00, 0.00, 0.00
20, 19172.86, 52720.81, -187500.02, 53533.75, -187500.02, -187500.02, -187500.02, -187500.02, 0.00, 0.00, 0.00
21, 19074.38, 52514.86, -187500.02, 53495.25, -187500.02, -187500.02, -187500.02, -187500.02, 0.00, 0.00, 0.00
22, 19081.21, 52522.24, -187500.02, 53414.14, -187500.02, -187500.02, -187500.02, -187500.02, 0.00, 0.00, 0.00
23, 19174.69, 52712.30, -187500.02, 53401.13, -187500.02, -187500.02, -187500.02, -187500.02, 0.00, 0.00, 0.00
24, 19255.98, 52877.16, -187500.02, 53431.73, -187500.02, -187500.02, -187500.02, -187500.02, 0.00, 0.00, 0.00
25, 19151.44, 52695.31, -187500.02, 53488.77, -187500.02, -187500.02, -187500.02, -187500.02, 0.00, 0.00, 0.00
26, 19037.81, 52473.13, -187500.02, 53496.95, -187500.02, -187500.02, -187500.02, -187500.02, -3.56, -0.03, 1.07
27, 19088.86, 52524.34, -187500.02, 53377.93, -187500.02, -187500.02, -187500.02, -187500.02, 0.00, 0.00, 0.00
28, 19224.78, 52767.48, -187500.02, 53327.91, -187500.02, -187500.02, -187500.02, -187500.02, 0.00, 0.00, 0.00
29, 19266.11, 52888.56, -187500.02, 53449.32, -187500.02, -187500.02, -187500.02, -187500.02, 0.00, 0.00, 0.00
30, 19127.59, 52676.27, -187500.02, 53535.62, -187500.02, -187500.02, -187500.02, -187500.02, 0.00, 0.00, 0.00
31, 19020.35, 52464.10, -187500.02, 53541.05, -187500.02, -187500.02, -187500.02, -187500.02, 0.00, 0.00, 0.00
32, 19043.22, 52495.44, -187500.02, 53506.52, -187500.02, -187500.02, -187500.02, -187500.02, 0.00, 0.00, 0.00
33, 19164.85, 52720.21, -187500.02, 53410.52, -187500.02, -187500.02, -187500.02, -187500.02, 0.00, 0.00, 0.00
34, 19221.65, 52859.10, -187500.02, 53464.23, -187500.02, -187500.02, -187500.02, -187500.02, 0.00, 0.00, 0.00
35, 19126.92, 52688.09, -187500.02, 53509.74, -187500.02, -187500.02, -187500.02, -187500.02, 0.00, 0.00, 0.00
36, 19039.73, 52488.36, -187500.02, 53523.06, -187500.02, -187500.02, -187500.02, -187500.02, -3.56, -0.03, 1.07
37, 19041.41, 52485.70, -187500.02, 53499.55, -187500.02, -187500.02, -187500.02, -187500.02, 0.00, 0.00, 0.00
38, 19143.40, 52688.78, -187500.02, 53435.98, -187500.02, -187500.02, -187500.02, -187500.02, 0.00, 0.00, 0.00
39, 19225.16, 52859.19, -187500.02, 53486.05, -187500.02, -187500.02, -187500.02, -187500.02, 0.00, 0.00, 0.00
40, 19130.50, 52690.39, -187500.02, 53553.97, -187500.02, -187500.02, -187500.02, -187500.02, 0.00, 0.00, 0.00
41, 19014.49, 52475.99, -187500.02, 53552.27, -187500.02, -187500.02, -187500.02, -187500.02, 0.00, 0.00, 0.00
42, 19032.82, 52493.70, -187500.02, 53515.86, -187500.02, -187500.02, -187500.02, -187500.02, 0.00, 0.00, 0.00
43, 19164.54, 52721.68, -187500.02, 53401.04, -187500.02, -187500.02, -187500.02, -187500.02, 0.00, 0.00, 0.00
44, 19253.86, 52898.69, -187500.02, 53429.03, -187500.02, -187500.02, -187500.02, -187500.02, 0.00, 0.00, 0.00
45, 19141.16, 52716.09, -187500.02, 53424.00, -187500.02, -187500.02, -187500.02, -187500.02, 0.00, 0.00, 0.00
46, 19015.30, 52477.63, -187500.02, 53460.63, -187500.02, -187500.02, -187500.02, -187500.02, -3.57, -0.03, 1.07
47, 19031.55, 52482.88, -187500.02, 53565.15, -187500.02, -187500.02, -187500.02, -187500.02, 0.00, 0.00, 0.00
48, 19167.98, 52713.32, -187500.02, 53462.67, -187500.02, -187500.02, -187500.02, -187500.02, 0.00, 0.00, 0.00
49, 19243.73, 52873.59, -187500.02, 53480.44, -187500.02, -187500.02, -187500.02, -187500.02, 0.00, 0.00, 0.00
50, 19156.85, 52709.23, -187500.02, 53516.87, -187500.02, -187500.02, -187500.02, -187500.02, 0.00, 0.00, 0.00
51, 19033.70, 52483.93, -187500.02, 53503.95, -187500.02, -187500.02, -187500.02, -187500.02, 0.00, 0.00, 0.00
52, 19026.18, 52475.17, -187500.02, 53517.27, -187500.02, -187500.02, -187500.02, -187500.02, 0.00, 0.00, 0.00
53, 19163.29, 52712.12, -187500.02, 53507.50, -187500.02, -187500.02, -187500.02, -187500.02, 0.00, 0.00, 0.00
54, 19254.89, 52892.18, -187500.02, 53509.14, -187500.02, -187500.02, -187500.02, -187500.02, 0.00, 0.00, 0.00
55, 19155.18, 52722.85, -187500.02, 53568.48, -187500.02, -187500.02, -187500.02, -187500.02, 0.00, 0.00, 0.00
56, 19056.22, 52519.09, -187500.02, 53583.21, -187500.02, -187500.02, -187500.02, -187500.02, 0.00, 0.00, 0.00
57, 19073.77, 52522.26, -187500.02, 53514.12, -187500.02, -187500.02, -187500.02, -187500.02, -3.57, -0.03, 1.07
58, 19167.78, 52707.13, -187500.02, 53391.75, -187500.02, -187500.02, -187500.02, -187500.02, 0.00, 0.00, 0.00
59, 19242.26, 52875.42, -187500.02, 53452.03, -187500.02, -187500.02, -187500.02, -187500.02, 0.00, 0.00, 0.00
60, 19157.72, 52724.03, -187500.02, 53560.25, -187500.02, -187500.02, -187500.02, -187500.02, 0.00, 0.00, 0.00
61, 19041.05, 52506.55, -187500.02, 53597.89, -187500.02, -187500.02, -187500.02, -187500.02, 0.00, 0.00, 0.00
62, 19037.61, 52484.55, -187500.02, 53464.21, -187500.02, -187500.02, -187500.02, -187500.02, 0.00, 0.00, 0.00
63, 19165.84, 52707.27, -187500.02, 53300.50, -187500.02, -187500.02, -187500.02, -187500.02, 0.00, 0.00, 0.00
64, 19260.92, 52898.84, -187500.02, 53413.36, -187500.02, -187500.02, -187500.02, -187500.02, 0.00, 0.00, 0.00
65, 19162.35, 52733.71, -187500.02, 53614.59, -187500.02, -187500.02, -187500.02, -187500.02, 0.00, 0.00, 0.00
66, 19053.95, 52513.61, -187500.02, 53578.76, -187500.02, -187500.02, -187500.02, -187500.02, 0.00, 0.00, 0.00
67, 19060.38, 52500.60, -187500.02, 53502.07, -187500.02, -187500.02, -187500.02, -187500.02, -3.57, -0.03, 1.07
68, 19163.02, 52701.75, -187500.02, 53405.42, -187500.02, -187500.02, -187500.02, -187500.02, 0.00, 0.00, 0.00
69, 19234.21, 52864.46, -187500.02, 53474.45, -187500.02, -187500.02, -187500.02, -187500.02, 0.00, 0.00, 0.00
70, 19157.90, 52724.21, -187500.02, 53547.45, -187500.02, -187500.02, -187500.02, -187500.02, 0.00, 0.00, 0.00
71, 19075.25, 52532.48, -187500.02, 53586.90, -187500.02, -187500.02, -187500.02, -187500.02, 0.00, 0.00, 0.00
72, 19050.82, 52489.70, -187500.02, 53553.50, -187500.02, -187500.02, -187500.02, -187500.02, 0.00, 0.00, 0.00
73, 19148.40, 52685.99, -187500.02, 53420.00, -187500.02, -187500.02, -187500.02, -187500.02, 0.00, 0.00, 0.00
74, 19240.36, 52871.78, -187500.02, 53478.16, -187500.02, -187500.02, -187500.02, -187500.02, 0.00, 0.00, 0.00
75, 19157.48, 52732.43, -187500.02, 53544.05, -187500.02, -187500.02, -187500.02, -187500.02, 0.00, 0.00, 0.00
76, 19051.60, 52517.75, -187500.02, 53539.18, -187500.02, -187500.02, -187500.02, -187500.02, 0.00, 0.00, 0.00
77, 19032.15, 52465.98, -187500.02, 53449.14, -187500.02, -187500.02, -187500.02, -187500.02, -3.57, -0.02, 1.07
78, 19141.79, 52677.32, -187500.02, 53441.90, -187500.02, -187500.02, -187500.02, -187500.02, 0.00, 0.00, 0.00
79, 19231.96, 52868.22, -187500.02, 53452.07, -187500.02, -187500.02, -187500.02, -187500.02, 0.00, 0.00, 0.00
80, 19152.34, 52729.39, -187500.02, 53387.23, -187500.02, -187500.02, -187500.02, -187500.02, 0.00, 0.00, 0.00
81, 19053.03, 52521.79, -187500.02, 53529.81, -187500.02, -187500.02, -187500.02, -187500.02, 0.00, 0.00, 0.00
82, 19073.39, 52512.07, -187500.02, 53602.19, -187500.02, -187500.02, -187500.02, -187500.02, 0.00, 0.00, 0.00
83, 19201.56, 52735.39, -187500.02, 53446.80, -187500.02, -187500.02, -187500.02, -187500.02, 0.00, 0.00, 0.00
84, 19262.89, 52893.52, -187500.02, 53456.21, -187500.02, -187500.02, -187500.02, -187500.02, 0.00, 0.00, 0.00
85, 19158.71, 52735.18, -187500.02, 53541.39, -187500.02, -187500.02, -187500.02, -187500.02, 0.00, 0.00, 0.00
86, 19055.04, 52520.77, -187500.02, 53636.65, -187500.02, -187500.02, -187500.02, -187500.02, 0.00, 0.00, 0.00
87, 19055.67, 52487.88, -187500.02, 53544.18, -187500.02, -187500.02, -187500.02, -187500.02, 0.00, 0.00, 0.00
88, 19167.34, 52700.25, -187500.02, 53410.07, -187500.02, -187500.02, -187500.02, -187500.02, -3.57, -0.03, 1.07
89, 19226.14, 52855.64, -187500.02, 53425.45, -187500.02, -187500.02, -187500.02, -187500.02, 0.00, 0.00, 0.00
90, 19168.16, 52741.80, -187500.02, 53514.86, -187500.02, -187500.02, -187500.02, -187500.02, 0.00, 0.00, 0.00
91, 19057.92, 52529.46, -187500.02, 53589.85, -187500.02, -187500.02, -187500.02, -187500.02, 0.00, 0.00, 0.00
92, 19037.96, 52478.63, -187500.02, 53550.22, -187500.02, -187500.02, -187500.02, -187500.02, 0.00, 0.00, 0.00
93, 19162.11, 52699.64, -187500.02, 53423.19, -187500.02, -187500.02, -187500.02, -187500.02, 0.00, 0.00, 0.00
94, 19261.12, 52888.36, -187500.02, 53331.17, -187500.02, -187500.02, -187500.02, -187500.02, 0.00, 0.00, 0.00
95, 19161.66, 52734.83, -187500.02, 53504.55, -187500.02, -187500.02, -187500.02, -187500.02, 0.00, 0.00, 0.00
96, 19044.00, 52514.86, -187500.02, 53624.05, -187500.02, -187500.02, -187500.02, -187500.02, 0.00, 0.00, 0.00
97, 19035.08, 52469.67, -187500.02, 53495.30, -187500.02, -187500.02, -187500.02, -187500.02, 0.00, 0.00, 0.00
98, 19151.38, 52680.76, -187500.02, 53390.02, -187500.02, -187500.02, -187500.02, -187500.02, -3.57, -0.03, 1.07
99, 19268.61, 52905.88, -187500.02, 53452.77, -187500.02, -187500.02, -187500.02, -187500.02, 0.00, 0.00, 0.00
100, 19196.26, 52775.73, -187500.02, 53480.52, -187500.02, -187500.02, -187500.02, -187500.02, 0.00, 0.00, 0.00
101, 19065.75, 52539.09, -187500.02, 53493.11, -187500.02, -187500.02, -187500.02, -187500.02, 0.00, 0.00, 0.00
102, 19041.29, 52481.56, -187500.02, 53432.63, -187500.02, -187500.02, -187500.02, -187500.02, 0.00, 0.00, 0.00
103, 19151.96, 52686.28, -187500.02, 53375.27, -187500.02, -187500.02, -187500.02, -187500.02, 0.00, 0.00, 0.00
104, 19234.14, 52861.41, -187500.02, 53388.44, -187500.02, -187500.02, -187500.02, -187500.02, 0.00, 0.00, 0.00
105, 19158.04, 52736.17, -187500.02, 53388.32, -187500.02, -187500.02, -187500.02, -187500.02, 0.00, 0.00, 0.00
106, 19052.00, 52525.17, -187500.02, 53391.01, -187500.02, -187500.02, -187500.02, -187500.02, 0.00, 0.00, 0.00
107, 19040.42, 52470.29, -187500.02, 53355.80, -187500.02, -187500.02, -187500.02, -187500.02, 0.00, 0.00, 0.00
108, 19158.22, 52684.38, -187500.02, 53263.96, -187500.02, -187500.02, -187500.02, -187500.02, -3.57, -0.03, 1.08
109, 19243.31, 52872.51, -187500.02, 53311.39, -187500.02, -187500.02, -187500.02, -187500.02, 0.00, 0.00, 0.00
110, 19163.76, 52742.34, -187500.02, 53513.18, -187500.02, -187500.02, -187500.02, -187500.02, 0.00, 0.00, 0.00
111, 19048.00, 52522.51, -187500.02, 53586.92, -187500.02, -187500.02, -187500.02, -187500.02, 0.00, 0.00, 0.00
112, 19022.21, 52452.88, -187500.02, 53473.11, -187500.02, -187500.02, -187500.02, -187500.02, 0.00, 0.00, 0.00
113, 19150.84, 52686.32, -187500.02, 53354.42, -187500.02, -187500.02, -187500.02, -187500.02, 0.00, 0.00, 0.00
114, 19260.81, 52896.50, -187500.02, 53368.10, -187500.02, -187500.02, -187500.02, -187500.02, 0.00, 0.00, 0.00
115, 19194.89, 52783.93, -187500.02, 53382.91, -187500.02, -187500.02, -187500.02, -187500.02, 0.00, 0.00, 0.00
116, 19080.79, 52561.24, -187500.02, 53492.77, -187500.02, -187500.02, -187500.02, -187500.02, 0.00, 0.00, 0.00
117, 19024.53, 52460.13, -187500.02, 53658.58, -187500.02, -187500.02, -187500.02, -187500.02, 0.00, 0.00, 0.00
118, 19130.14, 52659.37, -187500.02, 53379.05, -187500.02, -187500.02, -187500.02, -187500.02, 0.00, 0.00, 0.00
119, 19223.30, 52847.32, -187500.02, 53387.43, -187500.02, -187500.02, -187500.02, -187500.02, -3.57, -0.03, 1.07
120, 19167.20, 52750.18, -187500.02, 53653.48, -187500.02, -187500.02, -187500.02, -187500.02, 0.00, 0.00, 0.00
121, 19062.93, 52550.98, -187500.02, 53675.54, -187500.02, -187500.02, -187500.02, -187500.02, 0.00, 0.00, 0.00
122, 19038.75, 52477.16, -187500.02, 53541.23, -187500.02, -187500.02, -187500.02, -187500.02, 0.00, 0.00, 0.00
123, 19155.31, 52677.38, -187500.02, 53417.05, -187500.02, -187500.02, -187500.02, -187500.02, 0.00, 0.00, 0.00
124, 19253.52, 52870.21, -187500.02, 53495.75, -187500.02, -187500.02, -187500.02, -187500.02, 0.00, 0.00, 0.00
125, 19195.19, 52774.16, -187500.02, 53557.13, -187500.02, -187500.02, -187500.02, -187500.02, 0.00, 0.00, 0.00
126, 19096.26, 52572.20, -187500.02, 53582.36, -187500.02, -187500.02, -187500.02, -187500.02, 0.00, 0.00, 0.00
127, 19067.31, 52487.32, -187500.02, 53590.25, -187500.02, -187500.02, -187500.02, -187500.02, 0.00, 0.00, 0.00
128, 19179.79, 52684.91, -187500.02, 53472.81, -187500.02, -187500.02, -187500.02, -187500.02, 0.00, 0.00, 0.00
129, 19261.68, 52868.60, -187500.02, 53459.63, -187500.02, -187500.02, -187500.02, -187500.02, -3.57, -0.02, 1.07
130, 19206.12, 52775.89, -187500.02, 53494.07, -187500.02, -187500.02, -187500.02, -187500.02, 0.00, 0.00, 0.00
131, 19115.39, 52588.04, -187500.02, 53528.98, -187500.02, -187500.02, -187500.02, -187500.02, 0.00, 0.00, 0.00
132, 19085.66, 52499.35, -187500.02, 53544.23, -187500.02, -187500.02, -187500.02, -187500.02, 0.00, 0.00, 0.00
133, 19176.12, 52677.05, -187500.02, 53416.96, -187500.02, -187500.02, -187500.02, -187500.02, 0.00, 0.00, 0.00
134, 19247.40, 52854.81, -187500.02, 53415.06, -187500.02, -187500.02, -187500.02, -187500.02, 0.00, 0.00, 0.00
135, 19201.87, 52776.11, -187500.02, 53458.38, -187500.02, -187500.02, -187500.02, -187500.02, 0.00, 0.00, 0.00
136, 19078.17, 52553.87, -187500.02, 53501.56, -187500.02, -187500.02, -187500.02, -187500.02, 0.00, 0.00, 0.00
137, 19036.04, 52444.05, -187500.02, 53407.30, -187500.02, -187500.02, -187500.02, -187500.02, 0.00, 0.00, 0.00
138, 19163.78, 52659.01, -187500.02, 53170.95, -187500.02, -187500.02, -187500.02, -187500.02, 0.00, 0.00, 0.00
139, 19271.25, 52879.29, -187500.02, 53052.64, -187500.02, -187500.02, -187500.02, -187500.02, -3.57, -0.03, 1.07
140, 19220.62, 52806.73, -187500.02, 52978.97, -187500.02, -187500.02, -187500.02, -187500.02, 0.00, 0.00, 0.00
141, 19098.89, 52579.48, -187500.02, 52857.61, -187500.02, -187500.02, -187500.02, -187500.02, 0.00, 0.00, 0.00
142, 19041.18, 52451.85, -187500.02, 52880.11, -187500.02, -187500.02, -187500.02, -187500.02, 0.00, 0.00, 0.00
143, 19182.27, 52682.21, -187500.02, 52981.43, -187500.02, -187500.02, -187500.02, -187500.02, 0.00, 0.00, 0.00
144, 19274.38, 52873.90, -187500.02, 53110.78, -187500.02, -187500.02, -187500.02, -187500.02, 0.00, 0.00, 0.00
145, 19206.92, 52790.71, -187500.02, 53195.63, -187500.02, -187500.02, -187500.02, -187500.02, 0.00, 0.00, 0.00
146, 19106.40, 52586.23, -187500.02, 53502.90, -187500.02, -187500.02, -187500.02, -187500.02, 0.00, 0.00, 0.00
147, 19052.38, 52466.65, -187500.02, 53692.89, -187500.02, -187500.02, -187500.02, -187500.02, 0.00, 0.00, 0.00
148, 19156.05, 52661.63, -187500.02, 53508.80, -187500.02, -187500.02, -187500.02, -187500.02, 0.00, 0.00, 0.00
149, 19265.37, 52866.55, -187500.02, 53458.17, -187500.02, -187500.02, -187500.02, -187500.02, 0.00, 0.00, 0.00
150, 19245.25, 52816.23, -187500.02, 53484.26, -187500.02, -187500.02, -187500.02, -187500.02, -3.57, -0.02, 1.07
151, 19119.08, 52597.27, -187500.02, 53603.35, -187500.02, -187500.02, -187500.02, -187500.02, 0.00, 0.00, 0.00
152, 19045.47, 52468.55, -187500.02, 53568.61, -187500.02, -187500.02, -187500.02, -187500.02, 0.00, 0.00, 0.00
153, 19160.09, 52670.23, -187500.02, 53436.61, -187500.02, -187500.02, -187500.02, -187500.02, 0.00, 0.00, 0.00
154, 19267.34, 52869.83, -187500.02, 53393.62, -187500.02, -187500.02, -187500.02, -187500.02, 0.00, 0.00, 0.00
155, 19230.97, 52810.62, -187500.02, 53468.05, -187500.02, -187500.02, -187500.02, -187500.02, 0.00, 0.00, 0.00
156, 19116.40, 52605.25, -187500.02, 53598.50, -187500.02, -187500.02, -187500.02, -187500.02, 0.00, 0.00, 0.00
157, 19054.28, 52469.96, -187500.02, 53469.42, -187500.02, -187500.02, -187500.02, -187500.02, 0.00, 0.00, 0.00
158, 19163.74, 52659.57, -187500.02, 53459.71, -187500.02, -187500.02, -187500.02, -187500.02, 0.00, 0.00, 0.00
159, 19259.13, 52857.49, -187500.02, 53512.04, -187500.02, -187500.02, -187500.02, -187500.02, 0.00, 0.00, 0.00
160, 19207.26, 52790.37, -187500.02, 53496.95, -187500.02, -187500.02, -187500.02, -187500.02, -3.56, -0.02, 1.07
161, 19100.39, 52581.92, -187500.02, 53559.38, -187500.02, -187500.02, -187500.02, -187500.02, 0.00, 0.00, 0.00
162, 19045.41, 52454.04, -187500.02, 53488.39, -187500.02, -187500.02, -187500.02, -187500.02, 0.00, 0.00, 0.00
163, 19155.09, 52645.13, -187500.02, 53384.52, -187500.02, -187500.02, -187500.02, -187500.02, 0.00, 0.00, 0.00
164, 19266.94, 52864.85, -187500.02, 53410.05, -187500.02, -187500.02, -187500.02, -187500.02, 0.00, 0.00, 0.00
165, 19221.90, 52808.77, -187500.02, 53449.72, -187500.02, -187500.02, -187500.02, -187500.02, 0.00, 0.00, 0.00
166, 19101.26, 52586.50, -187500.02, 53564.05, -187500.02, -187500.02, -187500.02, -187500.02, 0.00, 0.00, 0.00
167, 19056.67, 52470.05, -187500.02, 53529.43, -187500.02, -187500.02, -187500.02, -187500.02, 0.00, 0.00, 0.00
168, 19158.06, 52651.28, -187500.02, 53375.00, -187500.02, -187500.02, -187500.02, -187500.02, 0.00, 0.00, 0.00
169, 19267.22, 52868.27, -187500.02, 53323.82, -187500.02, -187500.02, -187500.02, -187500.02, 0.00, 0.00, 0.00
170, 19229.74, 52823.03, -187500.02, 53452.16, -187500.02, -187500.02, -187500.02, -187500.02, -3.56, -0.02, 1.07
171, 19106.54, 52592.56, -187500.02, 53619.91, -187500.02, -187500.02, -187500.02, -187500.02, 0.00, 0.00, 0.00
172, 19043.30, 52447.65, -187500.02, 53508.80, -187500.02, -187500.02, -187500.02, -187500.02, 0.00, 0.00, 0.00
173, 19159.31, 52648.82, -187500.02, 53335.82, -187500.02, -187500.02, -187500.02, -187500.02, 0.00, 0.00, 0.00
174, 19254.15, 52849.25, -187500.02, 53334.73, -187500.02, -187500.02, -187500.02, -187500.02, 0.00, 0.00, 0.00
175, 19216.38, 52808.07, -187500.02, 53348.54, -187500.02, -187500.02, -187500.02, -187500.02, 0.00, 0.00, 0.00
176, 19118.03, 52610.21, -187500.02, 53584.71, -187500.02, -187500.02, -187500.02, -187500.02, 0.00, 0.00, 0.00
177, 19052.02, 52461.31, -187500.02, 53550.42, -187500.02, -187500.02, -187500.02, -187500.02, 0.00, 0.00, 0.00
178, 19156.85, 52641.75, -187500.02, 53340.47, -187500.02, -187500.02, -187500.02, -187500.02, 0.00, 0.00, 0.00
179, 19244.65, 52842.47, -187500.02, 53341.97, -187500.02, -187500.02, -187500.02, -187500.02, 0.00, 0.00, 0.00
180, 19212.89, 52812.61, -187500.02, 53399.66, -187500.02, -187500.02, -187500.02, -187500.02, 0.00, 0.00, 0.00
181, 19100.79, 52595.02, -187500.02, 53473.62, -187500.02, -187500.02, -187500.02, -187500.02, -3.57, -0.02, 1.06
182, 19054.26, 52460.10, -187500.02, 53481.31, -187500.02, -187500.02, -187500.02, -187500.02, 0.00, 0.00, 0.00
183, 19160.90, 52643.41, -187500.02, 53405.74, -187500.02, -187500.02, -187500.02, -187500.02, 0.00, 0.00, 0.00
184, 19253.35, 52842.23, -187500.02, 53297.96, -187500.02, -187500.02, -187500.02, -187500.02, 0.00, 0.00, 0.00
185, 19227.51, 52818.33, -187500.02, 53344.02, -187500.02, -187500.02, -187500.02, -187500.02, 0.00, 0.00, 0.00
186, 19107.12, 52601.16, -187500.02, 53467.29, -187500.02, -187500.02, -187500.02, -187500.02, 0.00, 0.00, 0.00
187, 19037.99, 52443.98, -187500.02, 53404.53, -187500.02, -187500.02, -187500.02, -187500.02, 0.00, 0.00, 0.00
188, 19154.86, 52641.29, -187500.02, 53311.59, -187500.02, -187500.02, -187500.02, -187500.02, 0.00, 0.00, 0.00
189, 19268.54, 52864.98, -187500.02, 53216.71, -187500.02, -187500.02, -187500.02, -187500.02, 0.00, 0.00, 0.00
190, 19231.62, 52829.53, -187500.02, 53164.25, -187500.02, -187500.02, -187500.02, -187500.02, 0.00, 0.00, 0.00
191, 19109.69, 52607.02, -187500.02, 53426.75, -187500.02, -187500.02, -187500.02, -187500.02, -3.57, -0.03, 1.07
192, 19041.99, 52453.48, -187500.02, 53562.73, -187500.02, -187500.02, -187500.02, -187500.02, 0.00, 0.00, 0.00
193, 19160.09, 52637.04, -187500.02, 53364.96, -187500.02, -187500.02, -187500.02, -187500.02, 0.00, 0.00, 0.00
194, 19263.89, 52849.11, -187500.02, 53241.81, -187500.02, -187500.02, -187500.02, -187500.02, 0.00, 0.00, 0.00
195, 19206.47, 52806.06, -187500.02, 53228.31, -187500.02, -187500.02, -187500.02, -187500.02, 0.00, 0.00, 0.00
196, 19091.41, 52593.07, -187500.02, 53358.44, -187500.02, -187500.02, -187500.02, -187500.02, 0.00, 0.00, 0.00
197, 19038.28, 52447.14, -187500.02, 53308.04, -187500.02, -187500.02, -187500.02, -187500.02, 0.00, 0.00, 0.00
198, 19143.22, 52620.99, -187500.02, 53173.79, -187500.02, -187500.02, -187500.02, -187500.02, 0.00, 0.00, 0.00
199, 19239.02, 52829.31, -187500.02, 53140.91, -187500.02, -187500.02, -187500.02, -187500.02, 0.00, 0.00, 0.00
200, 19233.77, 52834.96, -187500.02, 53218.56, -187500.02, -187500.02, -187500.02, -187500.02, 0.00, 0.00, 0.00
201, 19117.13, 52616.92, -187500.02, 53303.41, -187500.02, -187500.02, -187500.02, -187500.02, 0.00, 0.00, 0.00
202, 19028.20, 52438.73, -187500.02, 53185.91, -187500.02, -187500.02, -187500.02, -187500.02, -3.56, -0.02, 1.07
203, 19125.72, 52617.08, -187500.02, 53114.09, -187500.02, -187500.02, -187500.02, -187500.02, 0.00, 0.00, 0.00
204, 19248.12, 52852.11, -187500.02, 53113.40, -187500.02, -187500.02, -187500.02, -187500.02, 0.00, 0.00, 0.00
205, 19249.90, 52854.95, -187500.02, 53143.50, -187500.02, -187500.02, -187500.02, -187500.02, 0.00, 0.00, 0.00
206, 19117.56, 52611.76, -187500.02, 53214.16, -187500.02, -187500.02, -187500.02, -187500.02, 0.00, 0.00, 0.00
207, 19034.81, 52441.95, -187500.02, 53171.85, -187500.02, -187500.02, -187500.02, -187500.02, 0.00, 0.00, 0.00
208, 19110.07, 52593.07, -187500.02, 53040.75, -187500.02, -187500.02, -187500.02, -187500.02, 0.00, 0.00, 0.00
209, 19232.02, 52817.66, -187500.02, 53111.81, -187500.02, -187500.02, -187500.02, -187500.02, 0.00, 0.00, 0.00
210, 19223.53, 52823.85, -187500.02, 53185.59, -187500.02, -187500.02, -187500.02, -187500.02, 0.00, 0.00, 0.00
211, 19093.37, 52596.07, -187500.02, 53181.35, -187500.02, -187500.02, -187500.02, -187500.02, 0.00, 0.00, 0.00
212, 19025.38, 52435.31, -187500.02, 53280.81, -187500.02, -187500.02, -187500.02, -187500.02, -3.56, -0.02, 1.07
213, 19145.19, 52624.32, -187500.02, 53227.84, -187500.02, -187500.02, -187500.02, -187500.02, 0.00, 0.00, 0.00
214, 19246.04, 52837.13, -187500.02, 53129.36, -187500.02, -187500.02, -187500.02, -187500.02, 0.00, 0.00, 0.00
215, 19220.49, 52829.06, -187500.02, 53335.98, -187500.02, -187500.02, -187500.02, -187500.02, 0.00, 0.00, 0.00
216, 19111.41, 52617.48, -187500.02, 53430.57, -187500.02, -187500.02, -187500.02, -187500.02, 0.00, 0.00, 0.00
217, 19043.60, 52447.25, -187500.02, 53380.52, -187500.02, -187500.02, -187500.02, -187500.02, 0.00, 0.00, 0.00
218, 19132.73, 52611.85, -187500.02, 53324.51, -187500.02, -187500.02, -187500.02, -187500.02, 0.00, 0.00, 0.00
219, 19239.55, 52828.84, -187500.02, 53304.77, -187500.02, -187500.02, -187500.02, -187500.02, 0.00, 0.00, 0.00
220, 19240.85, 52848.26, -187500.02, 53361.43, -187500.02, -187500.02, -187500.02, -187500.02, 0.00, 0.00, 0.00
221, 19116.62, 52627.88, -187500.02, 53481.49, -187500.02, -187500.02, -187500.02, -187500.02, 0.00, 0.00, 0.00
222, 19042.10, 52457.13, -187500.02, 53420.96, -187500.02, -187500.02, -187500.02, -187500.02, -3.57, -0.03, 1.07
223, 19139.93, 52620.00, -187500.02, 53353.75, -187500.02, -187500.02, -187500.02, -187500.02, 0.00, 0.00, 0.00
224, 19236.20, 52817.86, -187500.02, 53318.09, -187500.02, -187500.02, -187500.02, -187500.02, 0.00, 0.00, 0.00
225, 19235.49, 52843.90, -187500.02, 53421.94, -187500.02, -187500.02, -187500.02, -187500.02, 0.00, 0.00, 0.00
226, 19115.90, 52622.62, -187500.02, 53556.86, -187500.02, -187500.02, -187500.02, -187500.02, 0.00, 0.00, 0.00
227, 19021.20, 52430.20, -187500.02, 53469.55, -187500.02, -187500.02, -187500.02, -187500.02, 0.00, 0.00, 0.00
228, 19122.36, 52592.71, -187500.02, 53328.69, -187500.02, -187500.02, -187500.02, -187500.02, 0.00, 0.00, 0.00
229, 19224.11, 52802.60, -187500.02, 53407.97, -187500.02, -187500.02, -187500.02, -187500.02, 0.00, 0.00, 0.00
230, 19243.96, 52847.19, -187500.02, 53506.57, -187500.02, -187500.02, -187500.02, -187500.02, 0.00, 0.00, 0.00
231, 19122.12, 52631.14, -187500.02, 53566.87, -187500.02, -187500.02, -187500.02, -187500.02, 0.00, 0.00, 0.00
232, 19026.63, 52446.20, -187500.02, 53485.46, -187500.02, -187500.02, -187500.02, -187500.02, 0.00, 0.00, 0.00
233, 19130.50, 52610.51, -187500.02, 53335.98, -187500.02, -187500.02, -187500.02, -187500.02, -3.56, -0.03, 1.07
234, 19239.06, 52821.84, -187500.02, 53360.95, -187500.02, -187500.02, -187500.02, -187500.02, 0.00, 0.00, 0.00
235, 19245.01, 52853.52, -187500.02, 53535.93, -187500.02, -187500.02, -187500.02, -187500.02, 0.00, 0.00, 0.00
236, 19116.57, 52626.82, -187500.02, 53598.09, -187500.02, -187500.02, -187500.02, -187500.02, 0.00, 0.00, 0.00
237, 19029.83, 52438.93, -187500.02, 53487.48, -187500.02, -187500.02, -187500.02, -187500.02, 0.00, 0.00, 0.00
238, 19119.99, 52589.05, -187500.02, 53432.96, -187500.02, -187500.02, -187500.02, -187500.02, 0.00, 0.00, 0.00
239, 19229.34, 52811.87, -187500.02, 53373.57, -187500.02, -187500.02, -187500.02, -187500.02, 0.00, 0.00, 0.00
240, 19255.63, 52867.84, -187500.02, 53400.33, -187500.02, -187500.02, -187500.02, -187500.02, 0.00, 0.00, 0.00
241, 19122.32, 52632.50, -187500.02, 53475.96, -187500.02, -187500.02, -187500.02, -187500.02, 0.00, 0.00, 0.00
242, 19032.38, 52441.53, -187500.02, 53380.19, -187500.02, -187500.02, -187500.02, -187500.02, 0.00, 0.00, 0.00
243, 19123.82, 52597.00, -187500.02, 53361.84, -187500.02, -187500.02, -187500.02, -187500.02, -3.56, -0.02, 1.08
244, 19223.84, 52801.57, -187500.02, 53431.04, -187500.02, -187500.02, -187500.02, -187500.02, 0.00, 0.00, 0.00
245, 19227.24, 52840.17, -187500.02, 53482.89, -187500.02, -187500.02, -187500.02, -187500.02, 0.00, 0.00, 0.00
246, 19112.10, 52626.84, -187500.02, 53554.44, -187500.02, -187500.02, -187500.02, -187500.02, 0.00, 0.00, 0.00
247, 19040.62, 52453.51, -187500.02, 53440.36, -187500.02, -187500.02, -187500.02, -187500.02, 0.00, 0.00, 0.00
248, 19136.60, 52605.45, -187500.02, 53332.51, -187500.02, -187500.02, -187500.02, -187500.02, 0.00, 0.00, 0.00
249, 19230.72, 52799.33, -187500.02, 53273.39, -187500.02, -187500.02, -187500.02, -187500.02, 0.00, 0.00, 0.00
250, 19222.92, 52826.38, -187500.02, 53402.92, -187500.02, -187500.02, -187500.02, -187500.02, 0.00, 0.00, 0.00
251, 19110.09, 52624.57, -187500.02, 53539.51, -187500.02, -187500.02, -187500.02, -187500.02, 0.00, 0.00, 0.00
252, 19043.84, 52468.66, -187500.02, 53526.70, -187500.02, -187500.02, -187500.02, -187500.02, 0.00, 0.00, 0.00
253, 19140.25, 52612.20, -187500.02, 53432.27, -187500.02, -187500.02, -187500.02, -187500.02, -3.57, -0.03, 1.07
254, 19226.72, 52810.64, -187500.02, 53363.58, -187500.02, -187500.02, -187500.02, -187500.02, 0.00, 0.00, 0.00
255, 19228.33, 52845.24, -187500.02, 53399.21, -187500.02, -187500.02, -187500.02, -187500.02, 0.00, 0.00, 0.00
0, 19111.14, 52627.20, -187500.02, 53506.32, -187500.02, -187500.02, -187500.02, -187500.02, 0.00, 0.00, 0.00
1, 19033.25, 52447.38, -187500.02, 53485.78, -187500.02, -187500.02, -187500.02, -187500.02, 0.00, 0.00, 0.00
2, 19125.25, 52591.17, -187500.02, 53384.61, -187500.02, -187500.02, -187500.02, -187500.02, 0.00, 0.00, 0.00
3, 19221.56, 52801.88, -187500.02, 53324.67, -187500.02, -187500.02, -187500.02, -187500.02, 0.00, 0.00, 0.00
4, 19249.30, 52871.80, -187500.02, 53374.33, -187500.02, -187500.02, -187500.02, -187500.02, 0.00, 0.00, 0.00
5, 19127.53, 52654.11, -187500.02, 53407.39, -187500.02, -187500.02, -187500.02, -187500.02, 0.00, 0.00, 0.00
6, 19039.62, 52463.19, -187500.02, 53481.66, -187500.02, -187500.02, -187500.02, -187500.02, 0.00, 0.00, 0.00
7, 19130.48, 52596.49, -187500.02, 53516.91, -187500.02, -187500.02, -187500.02, -187500.02, 0.00, 0.00, 0.00
8, 19240.31, 52816.01, -187500.02, 53486.79, -187500.02, -187500.02, -187500.02, -187500.02, -3.56, -0.03, 1.06
9, 19250.13, 52873.52, -187500.02, 53430.86, -187500.02, -187500.02, -187500.02, -187500.02, 0.00, 0.00, 0.00
10, 19116.44, 52641.98, -187500.02, 53525.83, -187500.02, -187500.02, -187500.02, -187500.02, 0.00, 0.00, 0.00
11, 19042.72, 52462.80, -187500.02, 53550.71, -187500.02, -187500.02, -187500.02, -187500.02, 0.00, 0.00, 0.00
12, 19115.55, 52585.52, -187500.02, 53488.37, -187500.02, -187500.02, -187500.02, -187500.02, 0.00, 0.00, 0.00
13, 19216.84, 52794.35, -187500.02, 53390.47, -187500.02, -187500.02, -187500.02, -187500.02, 0.00, 0.00, 0.00
14, 19237.07, 52862.63, -187500.02, 53421.27, -187500.02, -187500.02, -187500.02, -187500.02, 0.00, 0.00, 0.00
15, 19117.71, 52647.83, -187500.02, 53559.02, -187500.02, -187500.02, -187500.02, -187500.02, 0.00, 0.00, 0.00
16, 19036.94, 52462.45, -187500.02, 53521.16, -187500.02, -187500.02, -187500.02, -187500.02, 0.00, 0.00, 0.00
17, 19118.99, 52584.62, -187500.02, 53435.11, -187500.02, -187500.02, -187500.02, -187500.02, 0.00, 0.00, 0.00
18, 19218.05, 52786.46, -187500.02, 53378.24, -187500.02, -187500.02, -187500.02, -187500.02, -3.56, -0.03, 1.06
19, 19252.14, 52869.99, -187500.02, 53457.68, -187500.02, -187500.02, -187500.02, -187500.02, 0.00, 0.00, 0.00
20, 19156.32, 52681.72, -187500.02, 53588.73, -187500.02, -187500.02, -187500.02, -187500.02, 0.00, 0.00, 0.00
21, 19051.08, 52474.05, -187500.02, 53514.52, -187500.02, -187500.02, -187500.02, -187500.02, 0.00, 0.00, 0.00
22, 19097.98, 52565.13, -187500.02, 53383.77, -187500.02, -187500.02, -187500.02, -187500.02, 0.00, 0.00, 0.00
23, 19192.57, 52762.77, -187500.02, 53243.44, -187500.02, -187500.02, -187500.02, -187500.02, 0.00, 0.00, 0.00
24, 19227.69, 52851.46, -187500.02, 53378.38, -187500.02, -187500.02, -187500.02, -187500.02, 0.00, 0.00, 0.00
25, 19125.34, 52663.26, -187500.02, 53566.91, -187500.02, -187500.02, -187500.02, -187500.02, 0.00, 0.00, 0.00
26, 19040.91, 52467.48, -187500.02, 53515.21, -187500.02, -187500.02, -187500.02, -187500.02, 0.00, 0.00, 0.00
27, 19098.78, 52561.46, -187500.02, 53473.82, -187500.02, -187500.02, -187500.02, -187500.02, 0.00, 0.00, 0.00
28, 19209.31, 52780.13, -187500.02, 53384.01, -187500.02, -187500.02, -187500.02, -187500.02, -3.57, -0.03, 1.07
29, 19248.40, 52875.71, -187500.02, 53526.59, -187500.02, -187500.02, -187500.02, -187500.02, 0.00, 0.00, 0.00
30, 19141.43, 52676.67, -187500.02, 53617.77, -187500.02, -187500.02, -187500.02, -187500.02, 0.00, 0.00, 0.00
31, 19056.20, 52485.22, -187500.02, 53554.15, -187500.02, -187500.02, -187500.02, -187500.02, 0.00, 0.00, 0.00
32, 19099.83, 52562.20, -187500.02, 53475.94, -187500.02, -187500.02, -187500.02, -187500.02, 0.00, 0.00, 0.00
33, 19200.37, 52765.00, -187500.02, 53384.26, -187500.02, -187500.02, -187500.02, -187500.02, 0.00, 0.00, 0.00
34, 19241.37, 52869.14, -187500.02, 53437.48, -187500.02, -187500.02, -187500.02, -187500.02, 0.00, 0.00, 0.00
35, 19131.73, 52666.45, -187500.02, 53549.21, -187500.02, -187500.02, -187500.02, -187500.02, 0.00, 0.00, 0.00
36, 19048.47, 52477.63, -187500.02, 53540.99, -187500.02, -187500.02, -187500.02, -187500.02, 0.00, 0.00, 0.00
37, 19113.38, 52581.54, -187500.02, 53451.07, -187500.02, -187500.02, -187500.02, -187500.02, 0.00, 0.00, 0.00
38, 19209.98, 52776.78, -187500.02, 53347.60, -187500.02, -187500.02, -187500.02, -187500.02, 0.00, 0.00, 0.00
39, 19240.36, 52865.38, -187500.02, 53441.10, -187500.02, -187500.02, -187500.02, -187500.02, -3.57, -0.04, 1.07
40, 19135.95, 52670.14, -187500.02, 53602.70, -187500.02, -187500.02, -187500.02, -187500.02, 0.00, 0.00, 0.00
41, 19045.21, 52474.77, -187500.02, 53551.43, -187500.02, -187500.02, -187500.02, -187500.02, 0.00, 0.00, 0.00
42, 19092.88, 52545.06, -187500.02, 53454.66, -187500.02, -187500.02, -187500.02, -187500.02, 0.00, 0.00, 0.00
43, 19212.33, 52770.37, -187500.02, 53389.13, -187500.02, -187500.02, -187500.02, -187500.02, 0.00, 0.00, 0.00
44, 19260.59, 52892.50, -187500.02, 53456.90, -187500.02, -187500.02, -187500.02, -187500.02, 0.00, 0.00, 0.00
45, 19140.78, 52685.03, -187500.02, 53537.28, -187500.02, -187500.02, -187500.02, -187500.02, 0.00, 0.00, 0.00
46, 19041.03, 52479.50, -187500.02, 53540.72, -187500.02, -187500.02, -187500.02, -187500.02, 0.00, 0.00, 0.00
47, 19087.94, 52544.97, -187500.02, 53497.20, -187500.02, -187500.02, -187500.02, -187500.02, 0.00, 0.00, 0.00
